steady_timestamp,sequence,battery,flags,EEG-ch1,EEG-ch2,EEG-ch3,EEG-ch4,EEG-ch5,EEG-ch6,EEG-ch7,EEG-ch8,EEG-ch9,EEG-ch10
8411282320,22319,-2,0,43259.9220238771,60957.8248851494,40274.4315960064,57311.9083768199,69991.4880374062,50665.3161549846,44136.7140892415,61443.6201808054,30985.9647045803,23085.6251698060
8411282320,22319,-2,0,43251.4289714947,60953.1038187821,40273.0323108718,57304.4982494547,69986.2802631660,50659.6825113556,44133.9641897595,61443.7175223800,30987.8750329815,23090.1272176305
8411282320,22319,-2,0,43258.7174218916,60955.6468674181,40268.8466231647,57304.7416033912,69995.1261787563,50660.1083807444,44126.8582548149,61445.5305092066,30980.5379117973,23094.4710853963
8411282320,22319,-2,0,43260.4695702341,60963.7383858054,40278.1305758406,57314.3419161845,69996.8539917052,50662.7974417423,44136.2030459749,61451.9428854323,30990.0408830160,23087.9978706865
8411282320,22319,-2,0,43250.6989096853,60964.7848077321,40280.1625812100,57310.4847562916,69987.6552129070,50661.6415105441,44139.7438457504,61448.6941103805,30992.8394532853,23086.2092192535
8411282320,22319,-2,0,43255.5416530208,60964.4441122211,40272.9228016004,57301.5780022172,69990.9648264429,50670.0858921392,44134.7794254466,61449.1929859503,30981.1584643353,23103.8888827372
8411282320,22319,-2,0,43263.7791837700,60965.1255032432,40273.0323108718,57300.8236050142,69997.4745442431,50676.3279206094,44132.3702214757,61453.8775492271,30987.2301450499,23109.0966569774
8411282320,22319,-2,0,43262.1608800925,60963.7870565927,40276.4636013758,57306.2138947068,69994.2987753723,50666.4234153955,44136.7749277256,61452.6729472416,30995.0783095007,23098.0970590495
8411340068,22320,-2,0,43267.8310268120,60965.8068942653,40267.0701394285,57310.0710545996,69994.8706571230,50672.1057298119,44138.7825977014,61449.6918615200,30988.7876102433,23087.2921442707
8411340068,22320,-2,0,43282.6026107551,60977.7312371517,40272.6186091798,57324.4532722443,70007.1113601269,50675.6465295873,44148.7601090962,61457.7103737263,30991.1724788206,23086.9392810629
8411340068,22320,-2,0,43278.4290907448,60980.2621180909,40285.0539953328,57329.7583880591,70003.7409081069,50668.8691224569,44158.1414033467,61461.1416642304,31000.5172699806,23077.1807882109
8411340068,22320,-2,0,43266.9062818535,60966.1597574731,40276.2202474394,57315.8020398032,69995.8075697784,50654.8276003233,44149.2468169691,61450.0203893342,30987.5221697737,23077.2781297854
8411340068,22320,-2,0,43265.5313321125,60953.5053527773,40254.8659395151,57299.3999844859,69985.4771951757,50644.3633810555,44128.3427138273,61442.9752928738,30963.4544654579,23083.9460276444
8411340068,22320,-2,0,43269.4858335799,60952.9334710266,40252.4810709378,57302.3323994202,69980.8291349893,50646.0911940044,44128.6590739447,61446.2970741064,30962.7609067390,23087.4503243294
8411340068,22320,-2,0,43269.4493304895,60962.2782621866,40262.2760668803,57314.4635931527,69991.7922298268,50665.3039872878,44144.6839306605,61451.3710036816,30979.4914898705,23087.2556411803
8411340068,22320,-2,0,43273.9757137076,60971.8664072831,40271.4140071943,57318.2599145615,70003.4002125959,50676.8632992696,44148.9426245485,61450.7261157500,30986.8042756611,23089.6283420607
8411356243,22321,-2,0,43271.2623173161,60970.7104760849,40276.3905951949,57312.6627740229,70000.4434622679,50668.2972407063,44141.5203294865,61449.3024952217,30992.0850560823,23085.4791574441
8411356243,22321,-2,0,43257.0626151237,60961.6942127391,40271.5356841625,57303.5491691025,69988.6894671370,50655.9348607342,44137.5414926254,61442.1600571866,30991.7078574808,23080.5512402308
8411356243,22321,-2,0,43253.0959459594,60957.6302020002,40257.7496836622,57295.4819861089,69988.8111441052,50650.1795401369,44131.2142902775,61439.4101577046,30976.3765594839,23088.0587091706
8411356243,22321,-2,0,43260.1897132072,60962.9109824214,40256.3747339212,57300.6289218650,69987.3388527896,50654.7789295360,44135.1322886545,61445.7373600526,30973.2251260067,23093.9357067361
8411356243,22321,-2,0,43266.3222324060,60966.2814344414,40263.7483581959,57308.4649186190,69986.3045985597,50655.4846559517,44144.4162413304,61453.1718228114,30981.3774828781,23091.7698567016
8411356243,22321,-2,0,43272.8076148126,60965.3445217860,40262.9209548119,57304.3644047897,69994.6394708834,50663.2841496152,44138.1620451634,61456.3110885917,30978.1043724327,23095.0916379342
8411356243,22321,-2,0,43285.0604855133,60975.5288840268,40272.8862985099,57312.6871094166,70016.9306914630,50683.6528740968,44138.5392437649,61468.0042452385,30992.9732979504,23100.4089214459
8411356243,22321,-2,0,43279.6458604271,60983.2432038125,40288.1202549322,57327.2518425136,70018.9140260452,50679.1994970596,44154.5641004807,61473.2728579629,31016.4082820313,23092.1592229999
8411382677,22322,-2,0,43266.0423753790,60978.7046528976,40284.4212750980,57323.0418194129,70004.8603362147,50662.4689139281,44159.1269867893,61463.1249988125,31008.7913038202,23087.2556411803
8411382677,22322,-2,0,43264.5700840635,60975.5532194204,40276.5122721631,57313.7578667370,70003.6679019260,50669.5991842663,44150.4270835609,61455.5445236919,30990.1382245906,23085.7346790774
8411382677,22322,-2,0,43268.0743807485,60980.7853290543,40284.2630950393,57317.5906912362,70010.3114643913,50672.3855868388,44150.0620526562,61460.8009687194,30993.8372044248,23084.5300770919
8411382677,22322,-2,0,43259.4961544883,60978.9115037436,40283.4721947458,57313.3076619545,70005.8945904446,50661.8483613901,44145.7790233746,61458.0510692374,30994.9688002293,23085.7225113806
8411382677,22322,-2,0,43261.3578121022,60972.2679412782,40262.1908930025,57301.1643005252,69998.3627861112,50647.9528516183,44128.4887261892,61449.1808182535,30971.5094807547,23095.9433767118
8411382677,22322,-2,0,43269.8995352719,60978.1327711469,40261.9232036724,57308.4649186190,70011.3700540149,50653.7690106997,44132.8934324391,61456.5179394377,30973.4198091559,23093.3029865013
8411382677,22322,-2,0,43256.1135347715,60974.5919713714,40271.2314917420,57314.3297484877,70004.5683114909,50655.5454944358,44146.1440542793,61453.8167107430,30990.0043799256,23076.6575772475
8411382677,22322,-2,0,43254.6899142432,60967.3035209745,40264.4540846116,57306.9926273034,69992.7048070885,50658.6969279130,44142.0922112372,61451.8090407672,30981.5478306336,23086.1970515567
8411413128,22323,-2,0,43273.3186580792,60965.8190619621,40259.6721797602,57300.6775926523,69998.2532768398,50668.0903898603,44129.3282972700,61458.9149757118,30974.0281939970,23099.9830520571
8411413128,22323,-2,0,43280.3272514492,60973.8010710779,40274.8452976984,57311.8353706390,70015.1055369396,50675.9142189174,44138.7582623077,61469.9754121239,30996.3194145767,23091.5143350683
8411413128,22323,-2,0,43272.2479007587,60979.6293978561,40283.8250579537,57322.1292421512,70014.7405060349,50679.2238324533,44153.4933431603,61467.0308294927,31009.7890549597,23078.6774149201
8411413128,22323,-2,0,43277.1271471847,60983.7055762918,40278.3252589897,57325.8768927726,70010.9806877166,50676.5104360618,44157.0584783294,61459.2921743133,31003.8147158196,23079.6873337564
8411413128,22323,-2,0,43274.9126263630,60983.7420793823,40275.5145210236,57322.7497946891,70005.3592117844,50669.5505134790,44156.1215656741,61456.1407408362,31002.5006045627,23081.7193391258
8411413128,22323,-2,0,43266.8089402789,60974.0930958017,40269.1751509789,57309.4383343648,69988.7016348338,50655.8253514628,44144.9029492033,61451.4926806498,30993.0463041313,23084.5544124856
8411413128,22323,-2,0,43277.5043457862,60975.5775548141,40263.7118551054,57306.2503977972,70008.7905022885,50673.5293503401,44137.0669524493,61459.7058760053,30984.8087733822,23096.1380598610
8411413128,22323,-2,0,43287.0803231859,60988.6821642924,40279.3838486133,57323.0296517161,70020.6175036004,50680.2824220769,44149.4049970278,61476.3877883496,31003.3280079467,23092.6580985696
8411467615,22324,-2,0,43274.2434030377,60989.1323690748,40289.4343661891,57327.9088981421,70015.4097293602,50679.4185156024,44160.3072533812,61475.5603849656,31015.6660525251,23075.5746522302
8411467615,22324,-2,0,43271.4448327684,60987.6114069720,40287.5118700911,57323.0418194129,70020.4836589353,50694.8106520835,44156.9733044517,61471.1435110189,31018.4402874008,23077.5093160251
8411467615,22324,-2,0,43278.5872708035,60988.9985244098,40291.9530794314,57320.5231061705,70026.7865258896,50696.3924526704,44151.8507040892,61473.8569074104,31023.6115585505,23081.8896868813
8411467615,22324,-2,0,43270.3619077512,60983.6569055045,40297.3798722145,57316.8241263364,70017.5999147883,50683.7745510651,44151.5586793655,61468.4179469305,31028.9288420622,23073.8346715846
8411467615,22324,-2,0,43268.0500453548,60975.6870640855,40292.3424457298,57311.7501967612,70007.1235278237,50673.7970396702,44146.0953834920,61456.9073057360,31013.4271963097,23071.1456105867
8411467615,22324,-2,0,43285.3403425402,60977.2201938852,40286.4046096802,57313.9160467957,69999.7134004586,50679.4915217834,44141.6785095452,61459.4260189784,30997.3293334130,23089.5796712734
8411467615,22324,-2,0,43299.7225601849,60986.4068049865,40290.5294589032,57322.1049067575,70000.8936670504,50686.4879474566,44147.8718672281,61474.8059877626,31004.9828147146,23103.4021748643
8411467615,22324,-2,0,43300.7568144149,60990.2761325762,40298.0977663270,57325.1833340537,70016.2127973505,50699.7750723872,44150.7069405879,61479.9529235187,31019.8639079291,23107.5148563905
8411476314,22325,-2,0,43303.6648939556,60993.7074230803,40301.2370321073,57328.1035812912,70023.1118814491,50702.0747670868,44150.1593942308,61482.4838044579,31023.0031737094,23113.3918539559
8411476314,22325,-2,0,43295.7558910207,60996.3113102004,40311.0198603530,57335.7935656833,70028.5995127162,50701.7462392725,44161.6822031222,61481.7415749517,31036.3754725178,23102.6477776613
8411476314,22325,-2,0,43275.7521974437,60993.1112059359,40315.7774298108,57337.3631985735,70012.7571714527,50686.9381522390,44170.1752555046,61472.0074174933,31041.7049237262,23083.5931644365
8411476314,22325,-2,0,43270.6904355654,60985.1535322137,40297.2216921558,57324.3315952761,70006.7341615254,50682.5699490796,44159.0174775179,61458.9393111055,31018.0144180120,23087.3529827548
8411476314,22325,-2,0,43279.7553696985,60983.9976010156,40287.7673917243,57318.1139021996,70011.8202587974,50683.7988864587,44147.2391469933,61460.9834841717,31008.2315897663,23094.6414331518
8411476314,22325,-2,0,43275.5818496882,60977.9989264819,40288.6799689861,57314.3419161845,70003.0230139944,50675.4640141350,44143.8686949734,61461.4945274383,31012.5632898353,23091.1979749509
8411476314,22325,-2,0,43273.3916642601,60969.7248926423,40280.2234196941,57308.0755523207,69992.1572607315,50673.8092073671,44136.3368906400,61452.4052579115,31000.4564314965,23090.4070746574
8411476314,22325,-2,0,43285.7540442322,60978.3639573865,40282.1702511858,57316.0575614365,70005.3470440876,50683.7258802778,44136.3125552463,61458.1119077215,30996.2342406989,23095.5905135040
8411506353,22326,-2,0,43279.3538357033,60981.4423846827,40292.4154519107,57321.2410002831,70004.3857960386,50680.5987821943,44146.1927250665,61459.4503543720,31008.0734097076,23087.9857029896
8411506353,22326,-2,0,43267.1983065772,60972.7546491512,40287.1955099737,57318.6614485566,69999.0320094365,50675.8412127365,44146.4847497903,61452.1010654910,31004.6299515067,23083.7148414048
8411506353,22326,-2,0,43277.0663087006,60973.6428910192,40282.2310896699,57324.1490798238,70011.8689295847,50693.0098329537,44149.0521338199,61456.7126225869,30999.5438542347,23091.5386704619
8411506353,22326,-2,0,43295.3056862382,60990.4464803317,40300.5434733884,57348.0586040809,70026.7256874055,50699.0085074874,44168.9098150350,61474.4774599484,31018.2577719484,23097.9753820813
8411506353,22326,-2,0,43288.5891175919,60990.5924926936,40297.2946983367,57345.2356984179,70006.6003168603,50671.1566494597,44170.4794479251,61467.9555744513,31012.6119606226,23091.4534965842
8411506353,22326,-2,0,43288.6986268634,60983.9854333187,40275.8795519283,57330.0990835702,69999.8229097300,50666.6546016352,44155.3915038647,61460.8131364162,30990.5275908889,23092.1348876063
8411506353,22326,-2,0,43293.6873825608,60979.9700933672,40272.8254600258,57330.4032759908,70013.9982765287,50677.3378394457,44150.3540773800,61466.7023016785,30992.4500869870,23081.8166807004
8411506353,22326,-2,0,43288.3214282618,60981.6857386192,40289.3856954018,57340.1130980555,70014.3511397366,50686.1472519455,44157.9710555912,61470.1335921826,31015.8729033711,23075.2217890224
8411534346,22327,-2,0,43285.6688703544,60984.3382965266,40292.5127934853,57341.2325261632,70010.9441846261,50688.0940834372,44159.7475393273,61468.8194809257,31016.6151328773,23085.6495051996
8411534346,22327,-2,0,43289.4773594600,60991.7362561950,40292.6831412408,57341.5975570679,70019.4494047054,50687.8020587134,44161.7552093031,61470.0970890921,31019.1095107260,23090.9059502271
8411534346,22327,-2,0,43273.6958566807,60988.9620213193,40293.8147370454,57336.9494968815,70008.1699497505,50672.0205559341,44164.5537795724,61461.5066951351,31023.3682046141,23081.5368236735
8411534346,22327,-2,0,43264.8012703031,60979.8727517926,40284.2509273425,57320.9124724689,69996.3672838322,50671.2539910342,44156.0242240995,61447.9883839648,31009.8620611406,23081.0257804069
8411534346,22327,-2,0,43281.3858410728,60981.1625276558,40278.9823146182,57319.6105289088,70006.9288446745,50678.5424414312,44146.4969174871,61450.6774449627,31000.7119531298,23094.7752778168
8411534346,22327,-2,0,43281.1303194395,60980.8461675384,40281.5618663446,57326.4244391297,69999.9567543950,50669.6478550536,44150.0498849594,61455.9338899902,31007.0999939618,23092.6946016601
8411534346,22327,-2,0,43277.8693766909,60975.3463685745,40276.3297567108,57329.5393695163,69986.0369092296,50668.4919238554,44155.2454915028,61454.5346048556,30997.7186997113,23099.1678163699
8411534346,22327,-2,0,43291.6797125850,60981.6735709224,40279.0918238896,57337.5213786322,70010.2384582104,50685.7457179504,44155.1359822314,61460.1925838782,30991.4158327570,23106.8456330652
8411586728,22328,-2,0,43291.3511847708,60985.2387060915,40289.1423414653,57341.9990910630,70012.8180099369,50685.8430595250,44153.8218709745,61463.6117066855,31005.9562304604,23094.2033960662
8411586728,22328,-2,0,43274.2434030377,60976.3441197139,40290.5416266000,57332.7881445681,70000.9666732313,50666.1435583686,44151.6681886369,61454.0965677699,31014.8264814444,23085.6130021092
8411586728,22328,-2,0,43266.3465677996,60962.4972807294,40269.5158464899,57315.2301580526,69991.0134972301,50652.7834272570,44138.4784052808,61440.9554552011,30997.2319918384,23090.5652547161
8411586728,22328,-2,0,43264.6917610317,60959.0903256190,40261.3513219217,57311.4703397343,69988.3731070196,50651.9195207826,44135.0471147767,61436.9766183400,30988.9336226051,23091.7698567016
8411586728,22328,-2,0,43252.0008532454,60952.3859246696,40262.7871101468,57308.8786203110,69968.3572457458,50643.5359776716,44137.2129648112,61428.5322367449,30989.2013119352,23082.2303823924
8411586728,22328,-2,0,43254.7750881210,60942.0312146732,40248.7334203163,57296.4919049452,69950.2273774796,50640.8347489769,44125.1669449565,61421.6088172527,30967.7739978300,23094.0208806138
8411586728,22328,-2,0,43273.8662044362,60944.7446110648,40245.9105146534,57295.8591847104,69976.7286211600,50651.6396637557,44114.7635641729,61431.4768193761,30962.2741988661,23101.2971633139
8411586728,22328,-2,0,43262.2703893639,60946.9712995833,40259.5383350951,57302.3202317234,69979.3933467642,50642.8424189527,44120.2511954400,61434.1415449803,30982.2778924430,23085.1019588426
8411603844,22329,-2,0,43245.4789677483,60939.1109674357,40257.4333235448,57301.9917039092,69960.2170565713,50631.1614300027,44125.2034480470,61421.5479787686,30979.3576452055,23072.1311940293
8411603844,22329,-2,0,43251.7453316121,60938.4539118073,40245.5698191424,57302.2715609361,69962.6870990263,50636.5030489079,44124.5342247217,61416.4618814966,30967.8956747983,23072.2042002103
8411603844,22329,-2,0,43249.7376616363,60940.7049357195,40244.5720680029,57302.7217657186,69964.4879181561,50636.8924152063,44125.9700129468,61422.4118852430,30972.1908717768,23068.7364066157
8411603844,22329,-2,0,43238.4095358941,60934.9739505159,40244.5355649124,57297.6600038402,69960.3387335395,50633.4367893085,44124.8384171423,61418.9562593453,30973.1277844321,23070.9752628312
8411603844,22329,-2,0,43249.1171090983,60934.4507395525,40237.0280959727,57294.2043779425,69962.6870990263,50644.4120518428,44118.8519103054,61422.3997175462,30959.5364670809,23088.0343737769
8411603844,22329,-2,0,43268.6219271055,60952.8969679361,40253.7830144979,57309.7546944822,69985.5258659630,50659.1714680891,44129.9488498079,61439.3736546142,30971.7406669943,23093.5950112250
8411603844,22329,-2,0,43252.6092380865,60950.7189502048,40263.6996874086,57308.5014217095,69975.0859820889,50641.3092891530,44135.4608164687,61432.5475766965,30982.0467062034,23077.0104404553
8411603844,22329,-2,0,43236.7182260357,60936.8477758267,40250.6194133239,57292.6104096587,69963.7821917404,50633.8504910005,44123.9501752742,61417.1676079123,30968.8934259378,23072.0338524548
8411631932,22330,-2,0,43242.0720126378,60927.7585062999,40232.5138804514,57280.4305451389,69962.6140928454,50629.2632692983,44108.9595727883,61411.8503244007,30955.4116178579,23077.5944899028
8411631932,22330,-2,0,43242.4248758457,60925.0451099084,40233.6576439527,57283.4603016479,69960.2292242681,50625.1019169848,44111.1862613069,61413.7971558923,30962.0430126264,23075.4408075652
8411631932,22330,-2,0,43246.1603587704,60927.9288540554,40237.0645990631,57292.1480371794,69953.3058047759,50631.2344361836,44118.6085563689,61414.7705716382,30959.6946471396,23079.3953090326
8411631932,22330,-2,0,43266.8576110662,60943.5278413825,40243.0997766873,57298.2683886814,69961.0444599552,50653.4648182791,44117.5986375326,61421.7304942209,30954.9127422882,23099.3138287318
8411631932,22330,-2,0,43273.9757137076,60953.3228373249,40264.4297492179,57307.1873104526,69969.1603137361,50662.6757647741,44120.2025246527,61431.5619932538,30972.3855549259,23104.5459383657
8411631932,22330,-2,0,43264.5579163666,60948.7112802290,40271.1828209547,57304.2062247310,69973.4920138051,50660.9722872189,44122.6360640173,61434.4214020072,30981.6816752987,23104.6797830307
8411631932,22330,-2,0,43264.4727424889,60947.4215043658,40269.1386478884,57306.6519317924,69986.3776047406,50664.5982608721,44124.2300323011,61437.3659846384,30981.6451722082,23106.0060619844
8411631932,22330,-2,0,43259.8976884835,60945.9735484439,40265.2449849051,57311.4216689470,69981.9850661875,50649.5954906894,44133.5504880675,61436.2465565307,30983.7258483649,23090.1515530241
8411662793,22331,-2,0,43251.4289714947,60940.4250786926,40257.0682926401,57313.1008111085,69958.1607158082,50637.0627629618,44141.3013109437,61428.8729322560,30977.5689937725,23068.6634004348
8411662793,22331,-2,0,43256.6732488254,60937.5291668487,40246.8839303993,57308.1120554111,69964.7921105767,50640.5305565563,44135.1809594418,61421.4141341035,30964.2088626609,23062.2023534218
8411662793,22331,-2,0,43262.6840910559,60936.2758940760,40243.7446646189,57304.4252432738,69972.3604180006,50648.5977395499,44124.4368831471,61422.8864254191,30967.6036500745,23057.3717777831
8411662793,22331,-2,0,43256.8435965809,60936.9694527949,40251.5684936761,57305.0457958118,69969.9877171201,50649.6806645672,44124.7410755677,61425.7093310820,30983.3608174602,23060.1095095683
8411662793,22331,-2,0,43249.4091338221,60939.8045261546,40248.7090849227,57300.7871019237,69969.0629721616,50646.7117465424,44123.7068213377,61424.8089215171,30978.4815710342,23073.3722991053
8411662793,22331,-2,0,43255.8458454414,60949.1979881020,40248.6604141354,57300.1178785985,69978.5537756835,50652.1507070222,44124.4368831471,61431.6349994348,30971.1809529405,23089.3484850338
8411662793,22331,-2,0,43263.1951343225,60955.9023890514,40258.6622609239,57305.4229944133,69965.9115386844,50654.1097062107,44128.4035523114,61443.0848021452,30976.8267642663,23099.0461394017
8411662793,22331,-2,0,43270.0333799370,60954.6612839754,40266.6686054334,57305.4960005942,69982.9463142365,50664.6712670530,44128.0871921940,61445.1411429082,30980.9151103988,23099.5450149714
8411701859,22332,-2,0,43277.9667182655,60952.8361294520,40265.3909972670,57304.9362865404,69989.6872182764,50664.7077701435,44123.9866783647,61446.8081173730,30979.1264589659,23100.1290644189
8411701859,22332,-2,0,43279.3295003097,60958.6401208365,40271.8398765831,57316.1914061016,69999.5917234903,50660.1692192285,44133.7208358230,61450.9694696864,30991.9268760236,23087.6571751754
8411701859,22332,-2,0,43262.0270354275,60959.1876671936,40276.2567505298,57319.6470319993,69988.7746410147,50652.1872101127,44146.0832157951,61444.2772364338,31001.6975365724,23074.2848763670
8411701859,22332,-2,0,43258.1577078378,60955.9388921419,40264.3202399465,57311.4946751279,69984.8201395473,50651.3233036383,44140.6077522248,61435.7720163546,30987.7533560133,23080.1618739325
8411701859,22332,-2,0,43267.0279588217,60953.3471727186,40257.6645097844,57305.9948761639,69986.4627786184,50653.5378244600,44129.4743096318,61435.4191531467,30979.7105084134,23080.6242464118
8411701859,22332,-2,0,43280.5097669015,60954.6734516723,40261.6555143423,57312.0665568786,69977.5560245440,50659.5608343874,44134.4995684197,61443.3768268689,30982.5212463795,23082.3642270574
8411701859,22332,-2,0,43303.4580431096,60964.6752984607,40265.2571526019,57322.2022483321,69984.6376240949,50665.7420243735,44138.4297344935,61453.4273444447,30978.6640864866,23089.3849881243
8411701859,22332,-2,0,43319.1178689207,60978.8506652595,40274.3220867350,57334.6741375756,70011.2240416531,50675.7925419492,44146.1318865824,61462.7234648174,30988.7511071528,23084.2137169745
8411726449,22333,-2,0,43298.8951568010,60979.2643669514,40287.9134040862,57340.3686196888,70005.1401932416,50673.2859964037,44159.0904836989,61459.6450375212,31012.6606314099,23069.2717852759
8411726449,22333,-2,0,43273.0266333554,60967.2426824904,40284.2265919489,57327.8115565675,69994.8949925167,50659.3053127541,44157.3748384468,61443.5228392308,31009.9472350184,23066.8990843955
8411726449,22333,-2,0,43274.1338937663,60960.0515736680,40266.6564377365,57316.7997909427,69995.3086942087,50657.8816922258,44144.7204337510,61437.9622017827,30991.8417021458,23074.9662673891
8411726449,22333,-2,0,43284.6711192150,60965.9285712335,40269.1994863725,57326.2297559805,70003.7287404101,50663.9290375468,44149.5631770865,61447.4773406982,30998.9719724841,23077.4363098441
8411726449,22333,-2,0,43286.4232675575,60972.7181460607,40275.6970364760,57335.5867148373,70001.4290457106,50664.0750499087,44157.8372109261,61451.6265253149,31004.9706470178,23078.2028747440
8411726449,22333,-2,0,43293.7603887417,60976.5996413472,40267.9827166902,57329.6002080005,70006.7341615254,50657.4314874434,44153.5420139476,61453.7315368652,30992.4379192902,23085.2966419918
8411726449,22333,-2,0,43293.7847241353,60976.3927905012,40267.3499964555,57320.0363982976,70008.9000115599,50662.5419201090,44145.2558124112,61453.1596551146,30991.0386341555,23082.5954132971
8411726449,22333,-2,0,43281.6291950092,60969.0678370138,40269.3454987344,57311.2756565851,69995.2965265118,50650.8852665526,44138.9286100633,61444.7882797004,30992.5595962584,23069.4664684251
8411757871,22334,-2,0,43294.6729660034,60966.8654838889,40256.7275971290,57312.3950846928,69982.6786249064,50649.5589875989,44135.8015119798,61445.0072982432,30976.1940440315,23079.8455138151
8411757871,22334,-2,0,43312.3404617903,60981.9412602525,40264.8556186068,57331.8633996095,70012.2704635798,50674.8556292938,44150.6826051942,61462.6382909396,30982.5577494699,23086.1118776789
8411757871,22334,-2,0,43295.2326800573,60994.2306340437,40292.2086010647,57347.6327346921,70020.4714912385,50684.3342651189,44172.6574656564,61470.5472938745,31014.6074629016,23077.0469435458
8411757871,22334,-2,0,43269.2181442498,60985.2752091820,40289.8480678811,57329.0769970371,70001.9765920676,50671.8258727849,44165.7097107705,61455.6418652664,31012.4781159575,23074.7837519367
8411757871,22334,-2,0,43272.6372670571,60976.1372688679,40274.9669746666,57310.4117501107,69990.1495907557,50670.4752584376,44141.2769755501,61447.9153777839,30993.6303535788,23088.8374417672
8411757871,22334,-2,0,43286.1069074401,60974.0565927112,40274.0665651017,57310.8376194995,69998.0950967811,50662.9556218010,44135.1201209577,61452.2470778528,30993.4113350360,23092.2687322713
8411757871,22334,-2,0,43278.4777615321,60971.5743825593,40272.3995906370,57313.9525498861,69994.3961169469,50651.7005022398,44139.2084670902,61445.8468693240,30993.3018257646,23081.0866188910
8411757871,22334,-2,0,43276.3727499817,60968.7149738059,40258.0782114764,57311.7380290644,69989.8332306383,50650.4472294670,44138.4662375840,61440.1523872108,30977.0457828091,23080.7459233800
8411818764,22335,-2,0,43275.1438126026,60967.2548501872,40255.0484549675,57311.7745321548,69988.8719825893,50653.5256567632,44141.2891432469,61440.0063748490,30977.2282982615,23076.1343662841
8411818764,22335,-2,0,43264.3997363079,60960.4287722695,40260.5360862346,57312.8817925657,69983.2748420508,50652.5035702301,44146.5334205776,61437.1469660956,30987.3518220182,23063.0419245026
8411818764,22335,-2,0,43264.8742764840,60954.9411410024,40252.2255493045,57309.6695206045,69981.9120600066,50647.1741190216,44143.5158317655,61432.1338750045,30979.2238005404,23064.1005141262
8411818764,22335,-2,0,43271.7368574922,60954.7829609437,40250.6072456271,57310.6551040471,69981.3888490432,50645.4098029823,44140.2062182297,61432.2068811855,30978.7492603643,23066.1446871924
8411818764,22335,-2,0,43262.2338862735,60953.3471727186,40257.3603173638,57308.3919124381,69970.3892511153,50642.0758540528,44140.5955845280,61430.5520744175,30987.1571388690,23063.7841540088
8411818764,22335,-2,0,43260.1532101167,60946.7157779501,40248.7090849227,57293.3283037713,69951.0061100763,50634.0086710592,44130.0826944730,61424.7602507298,30974.4540633858,23076.3655525237
8411818764,22335,-2,0,43276.9324640356,60945.1948158472,40241.9560131860,57288.3760511643,69965.8993709876,50645.5314799506,44114.1308439381,61429.6273294590,30958.4900451541,23089.1903049751
8411818764,22335,-2,0,43287.3966833033,60953.3715081122,40255.9001937451,57302.7704365059,69977.3370060012,50648.1110316770,44122.8550825601,61441.6368462232,30974.5392372636,23091.1736395572
8411829877,22336,-2,0,43281.2884994982,60956.4256000148,40257.5063297257,57313.4050035291,69977.0693166711,50645.0204366840,44134.8889347180,61438.4124065652,30982.5212463795,23085.3939835663
8411829877,22336,-2,0,43281.5440211315,60960.6842939028,40253.5153251678,57318.7222870407,69981.2671720750,50651.3111359414,44142.7736022593,61436.7210967068,30983.2148050984,23086.9514487597
8411829877,22336,-2,0,43278.8062893463,60957.6058666066,40257.5671682098,57320.0729013881,69975.7308700205,50651.1772912764,44149.4171647246,61431.7080056157,30989.9922122287,23078.3853901963
8411829877,22336,-2,0,43261.4551536768,60944.5985987029,40253.7465114074,57304.2305601246,69963.1008007183,50641.2119475784,44141.8366896039,61421.5479787686,30984.6749287171,23072.8125850514
8411829877,22336,-2,0,43258.8756019503,60936.7747696457,40242.1993671224,57288.3882188611,69961.0201245616,50637.2209430205,44123.3052873426,61414.1135160097,30964.8172475021,23084.2745554586
8411829877,22336,-2,0,43267.0766296090,60943.9415430744,40246.0686947121,57290.9556028908,69968.5397611982,50645.3489644982,44120.2755308337,61421.9981835510,30965.0971045290,23092.0862168190
8411829877,22336,-2,0,43262.9761157797,60950.0618945764,40258.8569440730,57299.2539721240,69970.3770834184,50649.8388446259,44132.1268675392,61428.2645474148,30980.5622471910,23087.8396906278
8411829877,22336,-2,0,43260.6642533833,60949.5508513098,40257.7253482685,57294.4598995758,69955.5689963849,50645.9816847330,44126.3228761547,61422.3267113652,30973.7605046669,23093.8627005551
8411857818,22337,-2,0,43289.8180549711,60958.6644562302,40256.3138954370,57299.5338291510,69980.3302594196,50667.5793465937,44124.6924047804,61438.8991144381,30970.4752265247,23114.9371514524
8411857818,22337,-2,0,43296.4494497396,60968.1430920553,40276.4270982854,57316.1792384048,69998.5087984731,50676.8876346633,44135.2783010164,61448.0978932362,30996.0030544593,23102.8789639009
8411857818,22337,-2,0,43287.3236771224,60969.5545448867,40283.6668778950,57320.9854786498,69996.5132961941,50675.9385543111,44145.2436447144,61441.9045355533,31009.4240240550,23086.6229209455
8411857818,22337,-2,0,43287.7982172985,60970.2116005152,40279.6880410339,57320.4135968991,69997.9247490256,50678.0557335583,44148.1030534677,61438.4489096556,31007.2946771110,23087.0974611216
8411857818,22337,-2,0,43283.5638588041,60968.2160982362,40280.1504135132,57316.7876232459,69988.7746410147,50668.8569547601,44150.7069405879,61437.8040217240,31010.3487690135,23083.8121829794
8411857818,22337,-2,0,43275.4358373263,60958.9564809539,40269.6131880645,57306.7736087606,69976.0107270475,50652.4792348364,44147.0322961473,61432.0121980363,31001.3446733645,23082.8509349303
8411857818,22337,-2,0,43279.4511772779,60949.8793791240,40249.1471220083,57297.7208423243,69970.2432387534,50644.1200271191,44130.7762531919,61426.3298836200,30977.2648013519,23090.4557454447
8411857818,22337,-2,0,43300.6716405371,60956.3039230465,40246.1782039835,57310.6186009567,69982.1797493367,50652.1385393254,44135.4243133782,61440.5295858123,30976.6807519044,23105.7383726543
8411880288,22338,-2,0,43297.8852379647,60961.3656849249,40255.2553058134,57323.5285272858,69986.7548033421,50653.2336320395,44147.4094947488,61444.1433917688,30991.2698203951,23099.2651579445
8411880288,22338,-2,0,43292.8478114800,60957.3868480638,40252.2863877886,57318.1504052901,69973.8205416193,50653.9271907584,44145.0002907779,61437.3903200320,30981.9371969320,23096.0528859832
8411880288,22338,-2,0,43297.3620270013,60956.4377677116,40253.0042819012,57314.7677855733,69988.6772994401,50667.3968311414,44138.6000822490,61442.7197712405,30981.4869921495,23095.1768118120
8411880288,22338,-2,0,43286.3624290733,60954.7829609437,40265.5005065384,57317.4811819648,69991.6705528586,50666.3382415178,44144.9881230811,61447.0514713094,30998.5096000048,23082.6075809939
8411880288,22338,-2,0,43282.2497475472,60953.8703836820,40261.1688064694,57320.0120629040,69988.6651317433,50656.6040840594,44151.3274931258,61445.2019813924,30991.9390437204,23080.6120787149
8411880288,22338,-2,0,43296.5954621014,60966.1232543827,40257.8835283272,57330.0869158734,69992.9481610250,50654.5234079027,44158.6646143101,61451.3466682879,30982.8011034064,23085.9415299234
8411880288,22338,-2,0,43307.3882091834,60977.9745910882,40268.0435551744,57342.7534882661,70003.2055294467,50663.5153358549,44170.8323111330,61463.0033218443,30992.8029501948,23089.8230252099
8411880288,22338,-2,0,43301.5720501020,60977.0985169170,40272.6672799671,57337.8742418401,70000.7719900822,50663.9412052437,44167.4983622035,61456.1650762298,30996.1247314275,23085.4183189600
8411932643,22339,-2,0,43304.7356512760,60970.9781654150,40259.9885398776,57323.5041918922,69989.5412059146,50669.8547058996,44150.4392512578,61456.7369579805,30983.6528421840,23098.7297792843
8411932643,22339,-2,0,43311.8780893111,60978.4369635675,40269.6496911550,57328.5172829832,70010.7251660833,50678.3234228884,44152.1913996003,61469.8659028525,30996.8669609337,23099.0218040080
8411932643,22339,-2,0,43293.3345193529,60975.9425857188,40279.7732149117,57330.4276113844,70005.6755719018,50659.9136975953,44162.4852711125,61462.1272476731,31009.0346577566,23079.7603399373
8411932643,22339,-2,0,43279.8527112731,60967.9484089061,40267.0579717317,57320.3284230214,69995.1870172404,50650.5202356480,44158.2387449213,61445.6886892653,30992.3040746251,23074.4917272130
8411932643,22339,-2,0,43282.5296045741,60965.2471802114,40257.7496836622,57313.6483574656,69980.1964147546,50656.4702393944,44149.3806616342,61438.7409343794,30982.4117371080,23081.6341652481
8411932643,22339,-2,0,43294.0767488591,60968.2526013267,40263.3954949880,57319.0994856423,69981.8755569161,50677.5933610790,44155.6713608916,61448.7427811678,30990.2720692557,23098.9853009176
8411932643,22339,-2,0,43314.3968025534,60981.5397262573,40273.8718819525,57331.2306793747,70001.5020518915,50683.7258802778,44163.5073576456,61464.8649794582,30992.9854656472,23113.6838786797
8411932643,22339,-2,0,43322.7803456644,60991.1278713538,40279.2013331610,57341.6705632488,70022.5521673952,50681.0733223704,44168.6299580081,61471.7762312537,30996.9156317210,23108.9506446156
8411937865,22340,-2,0,43309.9434255162,60987.5140653974,40281.2698416209,57345.5642262322,70011.1997062594,50665.1823103196,44179.3862019995,61468.1259222068,31007.3068448078,23087.2799765739
8411937865,22340,-2,0,43292.5436190594,60971.1363454737,40266.4009161033,57332.2162628174,69997.1460164289,50658.2710585242,44172.6087948692,61451.9793885227,30999.9940590172,23076.4872294920
8411937865,22340,-2,0,43296.9969960966,60962.1200821279,40253.7465114074,57321.3991803418,69999.2631956761,50671.6190219389,44161.0738182810,61449.3755014026,30989.9192060478,23084.2258846713
8411937865,22340,-2,0,43299.2236846152,60966.8654838889,40263.8700351641,57327.8967304452,70006.0040997160,50673.6266919147,44163.5073576456,61456.8829703424,31000.2130775600,23081.7680099131
8411937865,22340,-2,0,43293.9429041940,60969.2260170725,40269.1751509789,57331.4010271302,69982.7394633905,50656.7744318149,44164.8458042961,61450.3732525421,30997.8890474668,23078.7260857074
8411937865,22340,-2,0,43310.5031395701,60975.6262256014,40258.8934471635,57329.6610464846,69992.5344593330,50665.1701426228,44159.6015269654,61456.5057717409,30976.5104041489,23096.5639292498
8411937865,22340,-2,0,43319.6654152777,60984.7154951281,40268.9439647393,57337.0225030624,70012.3556374576,50672.2274067801,44159.4433469067,61464.0254083774,30986.3540708787,23102.0637282138
8411937865,22340,-2,0,43304.4922973395,60980.7609936607,40279.1769977674,57337.0955092434,70008.5958191393,50671.9475497532,44167.6200391718,61462.7599679079,31003.2063309785,23097.4156680274
8411989193,22341,-2,0,43299.9415787278,60972.2192704910,40270.6717776881,57329.8922327242,70002.0252628549,50667.6280173810,44164.0914070931,61456.6031133155,30994.0440552708,23097.7198604480
8411989193,22341,-2,0,43307.0475136724,60972.4017859433,40268.0557228712,57331.8390642159,70005.1036901511,50669.7330289314,44163.0571528631,61458.9514788023,30987.6681821356,23091.0032918017
8411989193,22341,-2,0,43299.9294110309,60973.2291893273,40278.3860974739,57334.1387589154,69999.3240341602,50668.4797561586,44169.4086906047,61458.2335846897,30994.9079617452,23078.3002163186
8411989193,22341,-2,0,43285.8878888973,60966.8533161920,40272.9714723877,57319.3793426692,69980.9021411703,50654.0732031202,44159.4920176940,61444.5205903703,30983.1783020079,23075.0149381764
8411989193,22341,-2,0,43295.0379969081,60956.9488109782,40251.4346490110,57299.4243198796,69968.7587797410,50651.7370053303,44132.7839231677,61438.5219158366,30957.0055861417,23089.3484850338
8411989193,22341,-2,0,43311.0141828366,60963.8357273799,40259.4288258237,57307.8443660810,69991.6827205554,50666.5815954542,44132.9542709232,61455.3133374522,30970.7550835517,23101.4066725853
8411989193,22341,-2,0,43302.7158136034,60970.5887991167,40275.7092041728,57323.8570551000,70001.9157535835,50671.7406989072,44152.0940580257,61462.6747940301,30997.5970227431,23091.7576890047
8411989193,22341,-2,0,43297.9582441456,60974.8474930047,40279.4933578847,57332.3014366951,70005.3105409971,50676.4739329713,44164.1522455772,61460.4846086020,31003.3645110372,23086.1483807694
8412015392,22342,-2,0,43291.5458679199,60972.6208044861,40281.0629907749,57326.4001037360,69996.6471408592,50674.2472444527,44162.7164573521,61456.7491256773,31003.3036725530,23085.5886667155
8412015392,22342,-2,0,43277.5651842704,60963.7870565927,40276.3905951949,57314.5852701209,69987.8863991466,50673.0304747704,44157.1436522072,61452.1862393687,31001.8435489343,23090.5530870193
8412015392,22342,-2,0,43279.6701958207,60956.7176247385,40261.3148188313,57304.6320941198,69989.1518396162,50667.8713713175,44142.7857699561,61445.7495277494,30985.4658290106,23098.5472638319
8412015392,22342,-2,0,43288.1632482031,60957.1678295210,40254.0142007375,57305.4838328974,69989.4803674305,50659.1593003922,44138.6487530363,61446.3944156810,30975.7438392491,23098.0118851717
8412015392,22342,-2,0,43287.7617142080,60959.0416548317,40259.4044904301,57315.2544934462,69986.6087909802,50646.8699266011,44148.1760596487,61448.7792842583,30984.1030469664,23087.8275229309
8412015392,22342,-2,0,43283.0528155375,60953.8338805915,40255.2553058134,57312.3585816023,69980.1964147546,50643.9496793636,44150.4757543482,61442.1600571866,30977.0336151123,23085.2844742949
8412015392,22342,-2,0,43292.0325757928,60954.9776440928,40252.8582695393,57309.4018312744,69990.7944786873,50658.6725925193,44141.9096957849,61446.7472788889,30976.7659257822,23095.4201657484
8412015392,22342,-2,0,43289.3435147950,60956.6446185576,40262.7141039659,57311.2391534946,69992.8264840568,50659.9258652921,44143.4184901909,61452.8311273003,30989.5906782336,23093.5828435282
8412056425,22343,-2,0,43272.5520931793,60951.5950243761,40258.9907887381,57306.0313792544,69980.4641040847,50650.6905834035,44139.5248272076,61443.6201808054,30979.0899558754,23084.4327355173
8412056425,22343,-2,0,43282.3105860313,60957.6180343034,40255.3769827817,57308.7204402523,69979.5150237325,50660.1692192285,44142.4450744451,61449.7161969137,30961.3859569980,23100.6279399887
8412056425,22343,-2,0,43293.0181592355,60969.6762218550,40271.3775041038,57321.7398758528,69992.4492854553,50675.4031756509,44150.9259591307,61461.7257136779,30975.5856591904,23108.0502350507
8412056425,22343,-2,0,43288.7838007411,60971.7690657085,40287.8769009958,57329.3081832767,70001.9644243708,50678.4207644630,44163.5073576456,61463.5873712918,30999.7750404744,23103.5238518325
8412056425,22343,-2,0,43285.2795040561,60960.5991200250,40277.5465263931,57321.7398758528,69997.8517428446,50662.5054170186,44156.7907889993,61450.9451342928,30995.6866943419,23098.0240528686
8412056425,22343,-2,0,43286.0582366528,60950.9866395349,40261.8623651883,57312.7601155975,69982.0702400653,50644.7649150507,44149.8673695071,61447.1001420967,30981.5356629368,23094.2277314598
8412056425,22343,-2,0,43274.6692724265,60947.5796844245,40258.1390499605,57308.9759618856,69971.2044868024,50643.0492697987,44149.7700279325,61444.1068886783,30981.1706320321,23081.2813020402
8412056425,22343,-2,0,43271.4935035557,60945.9492130502,40251.6171644634,57300.8601081047,69970.8394558977,50653.7325076092,44142.1165466309,61441.1623060471,30974.1377032684,23081.0136127101
8412072043,22344,-2,0,43287.4940248779,60952.9699741171,40254.1723807962,57300.7505988333,69979.3568436738,50660.0718776540,44133.5261526739,61447.1974836713,30973.6023246082,23097.2939910592
8412072043,22344,-2,0,43293.0668300228,60957.0096494623,40261.9718744597,57305.0701312054,69985.7327168090,50658.6239217320,44137.9795297111,61459.4990251593,30986.9016172357,23104.4364290943
8412072043,22344,-2,0,43289.3921855823,60962.0957467343,40266.3765807096,57309.0611357633,69992.4979562425,50662.5662555027,44145.3774893794,61458.5377771103,30995.0053033198,23096.1258921642
8412072043,22344,-2,0,43291.0469923502,60968.3621105981,40263.2373149293,57312.4194200865,69995.3086942087,50660.5220824364,44152.1062257225,61453.8167107430,30990.8682864000,23091.8793659730
8412072043,22344,-2,0,43283.9288897088,60966.9263223730,40263.6631843181,57313.7822021306,69987.7768898752,50653.3066382204,44157.0463106326,61451.2614944102,30992.4500869870,23082.6197486907
8412072043,22344,-2,0,43273.4890058347,60953.8947190756,40259.2706457650,57306.3112362813,69974.1003986463,50651.2989682446,44155.6835285884,61444.8734535781,30987.8263621943,23080.8067618641
8412072043,22344,-2,0,43282.3227537281,60949.3926712511,40251.3616428301,57303.7316845549,69986.1829215914,50663.7951928818,44148.3950781915,61448.0978932362,30977.7271738312,23095.6026812008
8412072043,22344,-2,0,43290.8523092010,60956.3769292275,40259.9642044839,57311.0809734359,69998.1437675684,50663.0772987692,44150.2932388959,61460.2534223623,30986.8772818421,23096.2475691324
8412101258,22345,-2,0,43282.3835922122,60954.6004454913,40262.5315885136,57311.4095012502,69971.5086792230,50643.7793316080,44153.4325046762,61453.8897169239,30986.8042756611,23085.8076852583
8412101258,22345,-2,0,43293.2006746878,60953.5053527773,40252.5662448156,57304.6564295134,69984.0900777379,50655.0344511693,44147.7380225631,61451.5291837403,30971.3878037865,23092.9014525061
8412101258,22345,-2,0,43298.0677534170,60963.4220256880,40261.2053095599,57307.4549997827,69994.1040922232,50660.8506102506,44142.4572421419,61455.9338899902,30977.7880123153,23095.8338674404
8412101258,22345,-2,0,43279.9743882413,60958.6522885334,40265.5248419320,57303.3179828629,69980.7074580211,50652.0655331445,44141.7515157262,61455.7392068410,30985.9403691867,23087.3408150580
8412101258,22345,-2,0,43281.9698905203,60955.1723272420,40255.5960013245,57300.9331142856,69974.1369017367,50648.9262673641,44138.5149083713,61455.8000453251,30971.9596855371,23095.6756873817
8412101258,22345,-2,0,43298.3476104439,60963.6653796244,40255.6325044150,57316.8727971237,69999.7499035490,50660.4734116491,44150.2202327149,61464.8893148519,30975.7925100364,23098.7662823748
8412101258,22345,-2,0,43294.8433137589,60970.1750974247,40273.2269940209,57338.3366143193,70004.0207651339,50658.6239217320,44175.7845637399,61468.2841022655,31001.1378225186,23085.1141265394
8412101258,22345,-2,0,43276.9202963388,60961.2196725630,40271.2071563483,57329.8070588464,69986.6331263739,50652.2237132032,44179.8485744788,61453.9262200144,31002.2207475358,23079.0789489152
8412173813,22346,-2,0,43280.9599716840,60952.5927755155,40256.2895600434,57310.9836318614,69982.5326125446,50651.2381297605,44157.3018322659,61448.4142533536,30979.6740053229,23092.4025769364
8412173813,22346,-2,0,43288.3092605650,60955.6346997213,40262.1787253057,57311.6771905803,69995.8805759593,50653.8785199711,44153.9557156396,61458.1727462056,30984.0057053919,23099.6666919397
8412173813,22346,-2,0,43280.3880899333,60954.6734516723,40267.7271950570,57318.7952932217,69988.8963179830,50639.9830101993,44161.0494828874,61456.7004548900,30989.8948706542,23091.6846828238
8412173813,22346,-2,0,43278.3439168670,60950.9501364445,40256.6667586449,57315.1571518716,69986.7669710389,50642.4043818671,44156.9733044517,61448.5724334123,30977.0214474155,23090.7721055621
8412173813,22346,-2,0,43284.3669267944,60949.5265159162,40250.4855686589,57313.1251465022,69989.2735165845,50654.3652278440,44150.8407852529,61451.3345005911,30977.7028384376,23091.2101426477
8412173813,22346,-2,0,43279.7432020017,60944.6229340965,40255.7055105959,57310.2414023552,69978.7727942263,50658.1493815559,44149.6970217516,61453.6220275938,30992.2067330505,23092.1227199094
8412173813,22346,-2,0,43279.8405435763,60941.7270222527,40251.4224813142,57303.6100075866,69971.5816854039,50647.4661437454,44138.7582623077,61447.2826575491,30982.7889357096,23096.1380598610
8412173813,22346,-2,0,43296.9969960966,60944.8054495489,40247.8086753578,57309.4626697585,69990.1982615430,50653.4769859759,44141.0457893104,61456.2502501076,30971.2417914246,23102.1732374852
8412182655,22347,-2,0,43298.3476104439,60951.7532044348,40260.7551047774,57325.3415141124,69990.1739261494,50649.8875154132,44159.9178870828,61460.6062855702,30982.0953769907,23088.6792617085
8412182655,22347,-2,0,43290.2925951472,60946.1925669867,40260.9984587139,57323.2243348652,69982.3744324859,50641.3822953339,44164.5416118755,61454.7171203079,30982.1927185652,23080.1253708420
8412182655,22347,-2,0,43293.1276685069,60938.7459365310,40244.9857696949,57311.0809734359,69985.5623690535,50642.6234004099,44151.6560209400,61450.3002463612,30970.6334065834,23083.8730214635
8412182655,22347,-2,0,43296.4494497396,60942.2258978224,40245.8010053820,57315.0476426002,69989.5533736114,50647.5513176232,44149.6848540547,61457.2966720344,30978.8222665453,23085.6616728965
8412182655,22347,-2,0,43295.5855432651,60949.1006465274,40253.7830144979,57325.0981601760,69990.3686092985,50649.1574536038,44161.8890539681,61458.8176341372,30986.1593877295,23083.6296675270
8412182655,22347,-2,0,43299.8199017595,60953.0673156916,40247.5774891182,57325.1346632664,69990.7823109905,50647.5269822295,44161.0859859778,61454.9361388507,30974.6365788382,23083.9460276444
8412182655,22347,-2,0,43294.5391213384,60950.1105653637,40246.2268747708,57315.5951889572,69988.4704485941,50644.7770827475,44153.1039768620,61451.2493267134,30974.4053925985,23078.0325269885
8412182655,22347,-2,0,43277.6503581481,60939.0379612548,40244.2192047950,57304.3644047897,69974.8912989398,50632.6823921055,44144.8907815065,61443.9365409228,30975.2449636793,23070.1235240536
8412186975,22348,-2,0,43277.3339980307,60930.4475672978,40234.0105071606,57296.5649111262,69968.4424196236,50633.7774848196,44133.0881155882,61437.9378663891,30960.3273673744,23078.7382534042
8412186975,22348,-2,0,43289.4773594600,60936.5070803156,40234.0105071606,57302.7217657186,69982.3257616986,50643.1466113733,44134.7794254466,61443.7418577736,30961.3251185139,23085.8928591361
8412186975,22348,-2,0,43286.5327768289,60939.8166938515,40247.0664458516,57314.1228976417,69978.9309742850,50637.6224770156,44151.3761639131,61446.2119002287,30980.2945578609,23076.8035896093
8412186975,22348,-2,0,43274.7666140011,60938.7216011374,40250.1570408446,57310.0223838123,69974.9278020302,50633.8383233037,44158.2509126181,61440.7851074456,30976.6807519044,23076.7427511252
8412186975,22348,-2,0,43277.0906440943,60941.6540160717,40244.6815772743,57304.6929326039,69984.2482577966,50636.1988564874,44150.2445681086,61442.6711004532,30965.2674522845,23092.5850923887
8412186975,22348,-2,0,43273.4768381379,60941.3011528639,40246.8109242183,57299.1079597622,69977.2518321234,50632.1713488390,44142.1165466309,61445.0194659400,30969.4166369011,23094.9334578755
8412186975,22348,-2,0,43275.3019926613,60942.9924627222,40248.2832155339,57298.9132766130,69983.3600159285,50639.0826006344,44140.6320876185,61448.0127193585,30970.5238973120,23095.3106564770
8412186975,22348,-2,0,43288.3700990491,60952.5927755155,40248.4048925021,57308.3432416508,69992.9603287218,50650.1065339560,44143.2724778290,61450.5922710849,30971.1687852436,23092.9014525061
8412218148,22349,-2,0,43293.9794072845,60958.5792823524,40257.4941620289,57319.1481564295,69989.1640073131,50656.6649225435,44149.3928293310,61450.6896126595,30976.7415903886,23086.4404054931
8412218148,22349,-2,0,43293.6995502576,60959.1876671936,40265.5126742352,57320.9124724689,69976.9598073996,50660.7776040697,44150.4879220450,61451.6386930117,30982.2535570493,23096.8924570640
8412218148,22349,-2,0,43304.4436265522,60962.4242745485,40262.2152283962,57317.6636974171,69996.6958116465,50667.6036819874,44148.4072458883,61463.7212159569,30977.5689937725,23116.5554551299
8412218148,22349,-2,0,43310.8073319906,60970.1629297279,40265.8533697462,57322.3969314813,69999.5187173094,50656.9082764800,44148.7479413994,61466.4711154389,30982.8254388000,23112.3575997260
8412218148,22349,-2,0,43298.1285919011,60965.9894097176,40268.6519400155,57324.8061354522,69983.0436558111,50639.9100040183,44153.9922187301,61461.5797013160,30984.4802455679,23095.2741533866
8412218148,22349,-2,0,43291.2295078025,60959.7108781570,40262.0448806406,57322.7376269923,69987.3388527896,50648.0380254961,44155.0143052632,61457.4913551835,30979.0412850881,23086.2335546471
8412218148,22349,-2,0,43291.9108988246,60961.0006540202,40266.1332267732,57324.3072598825,69999.2023571920,50662.5540878058,44155.7687024662,61458.4647709294,30985.9525368835,23080.2348801134
8412218148,22349,-2,0,43283.5273557136,60956.9731463718,40276.4879367695,57326.2175882837,69994.6151354897,50660.8992810379,44160.2707502907,61456.1042377457,31003.3036725530,23069.3569591537
8412256510,22350,0,0,43276.2145699230,60949.5751867035,40269.2481571598,57323.9057258873,69979.5150237325,50644.3147102683,44159.6136946623,61443.5471746244,30994.2022353295,23064.5263835150
8412256510,22350,0,0,43284.0383989802,60949.7577021558,40255.2309704198,57322.8228008701,69980.6952903243,50648.2935471294,44154.7709513267,61438.0717110541,30972.9452689798,23069.0649344300
8412256510,22350,0,0,43291.2781785898,60959.8325551252,40260.5482539314,57334.9783299962,69990.0887522716,50658.8307725780,44165.0891582326,61448.8157873488,30980.5865825846,23074.5890687876
8412256510,22350,0,0,43291.9960727024,60961.0979955948,40266.5834315556,57337.9837511115,69984.4064378553,50660.7532686760,44168.3379332843,61449.6675261264,30987.5951759546,23084.0555369158
8412256510,22350,0,0,43307.4977184548,60958.6036177461,40261.2053095599,57329.9165681178,69978.5416079866,50663.1138018597,44152.3252442653,61452.6242764543,30973.8700139383,23109.2426693393
8412256510,22350,0,0,43326.5766670732,60970.7104760849,40273.3365032923,57341.7070663393,70003.7774111974,50675.6952003746,44156.5596027597,61469.7198904906,30982.9471157683,23121.7267262796
8412256510,22350,0,0,43310.0651024844,60977.1715230979,40286.9278206436,57349.4335538219,70004.7143238528,50668.3337437967,44171.4893667614,61470.6324677523,31005.6520380399,23107.9528934761
8412256510,22350,0,0,43294.5756244288,60975.7235671760,40286.6479636166,57346.2091141638,69998.4722953826,50675.3423371668,44177.3541966301,61462.8694771793,31009.4726948423,23101.3458341012
8412301596,22351,0,0,43296.8388160379,60974.5919713714,40280.8561399289,57339.5777193953,69997.9855875097,50676.7902930887,44169.5425352698,61459.9005591545,31003.8998896974,23099.4841764873
8412301596,22351,0,0,43291.8500603405,60969.7613957327,40284.4942812790,57337.7769002655,69994.5421293088,50677.7272057440,44166.6952942132,61459.3530127974,31010.5191167690,23094.5562592740
8412301596,22351,0,0,43292.9694884482,60968.6297999282,40283.6182071077,57338.9206637668,69996.2456068640,50669.6478550536,44166.6344557291,61459.4016835847,31008.7182976392,23095.7000227754
8412301596,22351,0,0,43302.8374905716,60971.5500471657,40277.4005140312,57342.9481714152,69997.1946872162,50670.1223952297,44164.7727981152,61459.4016835847,30996.1125637307,23104.4485967911
8412301596,22351,0,0,43308.3616249292,60977.2932000661,40279.2621716451,57349.3118768536,69987.8133929657,50670.1832337138,44171.8178945757,61466.9821587054,30998.6921154571,23110.9339791977
8412301596,22351,0,0,43304.8694959410,60976.2954489266,40281.7808848875,57353.4002229861,69995.6858928102,50672.0570590246,44174.9571603560,61466.7144693753,31001.1621579122,23112.4427736037
8412301596,22351,0,0,43301.4138700433,60971.7934011021,40273.7988757716,57343.0820160803,69995.9292467466,50666.4355830924,44164.2495871518,61461.6162044065,30993.3991673392,23112.7347983275
8412301596,22351,0,0,43297.7757286933,60967.7172226665,40272.5821060893,57336.7061429451,69997.0243394607,50661.1061318839,44157.4965154151,61461.4945274383,30993.1801487963,23106.8821361557
8412319241,22352,0,0,43284.8171315768,60961.2683433503,40273.9935589208,57334.3212743678,69984.7106302759,50660.4125731650,44161.8160477872,61455.3498405427,30997.8525443764,23100.5671015046
8412319241,22352,0,0,43282.7607908138,60962.5216161231,40275.8430488379,57337.8620741432,69993.7268936217,50680.1607451086,44166.0990770689,61457.6617029390,30999.5073511443,23099.9343812698
8412319241,22352,0,0,43290.0979119980,60969.5667125836,40284.7254675186,57344.7611582418,70005.0793547575,50695.1878506850,44169.4330259984,61466.2034261088,31011.1031662165,23097.7685312353
8412319241,22352,0,0,43284.1722436452,60966.5004529842,40293.8634078326,57341.8409110043,70000.7963254758,50685.5875378917,44169.2748459397,61465.3395196343,31025.2663653184,23091.4656642810
8412319241,22352,0,0,43278.7211154685,60953.7000359264,40279.8462210926,57328.0792458976,69987.8133929657,50658.8794433653,44156.3040811264,61453.7072014716,31009.1806701185,23092.4390800268
8412319241,22352,0,0,43285.6323672640,60950.1714038478,40268.6762754092,57323.8205520096,69988.1784238704,50660.9722872189,44151.1814807640,61449.8257061851,30991.1481434269,23101.6621942186
8412319241,22352,0,0,43294.5147859447,60962.6676284849,40281.5983694351,57342.9846745057,69997.7909043605,50674.9408031716,44168.9949889127,61462.3827693064,31003.9972312719,23103.8888827372
8412319241,22352,0,0,43294.1984258273,60968.6297999282,40284.7619706091,57350.6989942914,69997.3041964876,50678.8831369422,44179.8850775693,61466.9091525245,31008.4384406123,23104.5702737593
8412348465,22353,0,0,43299.2601877057,60964.9673231845,40270.7569515659,57340.4781289602,70000.8571639599,50671.6920281199,44165.7218784674,61462.9059802697,30994.5064277500,23110.1917496915
8412348465,22353,0,0,43301.1948515005,60960.8059708710,40266.6564377365,57336.4384536149,69996.1847683799,50665.5108381338,44160.0638994447,61473.4675411120,30993.7885336375,23115.9957410760
8412348465,22353,0,0,43294.9284876367,60960.9033124456,40269.8443743042,57336.6331367641,69991.3541927412,50654.7424264455,44162.1932463887,61471.5937158013,30993.9588813930,23109.8510541805
8412348465,22353,0,0,43294.4052766733,60962.4729453358,40264.2715691592,57334.4064482455,69997.8760782383,50661.2643119426,44158.4577634641,61463.6847128664,30983.7988545459,23103.8888827372
8412348465,22353,0,0,43294.8189783653,60968.1674274489,40272.8254600258,57339.8819118158,70001.6845673439,50674.0647290003,44162.6191157775,61462.3097631254,30996.6601100877,23098.5107607415
8412348465,22353,0,0,43288.1267451127,60962.1079144311,40277.8507188137,57335.9517457420,69983.2018358698,50660.3273992872,44163.3126744964,61457.2236658534,31004.2162498148,23099.9343812698
8412348465,22353,0,0,43292.2029235484,60956.8027986163,40273.1783232336,57329.6245433941,69983.2261712635,50655.6550037072,44155.8538763440,61455.0578158189,30996.8912963273,23107.7338749333
8412348465,22353,0,0,43300.6108020530,60959.6378719760,40273.6528634097,57326.9111470026,69993.2888565360,50665.6933535862,44148.6871029153,61456.2137470171,30992.8881240726,23110.3742651438
8412381450,22354,0,0,43294.2714320083,60964.8213108226,40286.7453051912,57331.9850765778,69985.3311828138,50669.7330289314,44157.7155339579,61459.2921743133,31004.4231006607,23106.9186392461
8412381450,22354,0,0,43287.8590557826,60966.5369560746,40287.9012363894,57330.0139096924,69988.0080761149,50671.2904941247,44158.6524466132,61454.3885924937,31005.7858827049,23104.1200689769
8412381450,22354,0,0,43293.1155008101,60968.0822535712,40278.4834390484,57327.5682026310,69997.5110473336,50676.8389638760,44153.3594984953,61457.3940136089,31000.9553070662,23108.8776384346
8412381450,22354,0,0,43295.3178539350,60967.3400240650,40278.3130912929,57329.7462203623,70000.3096176029,50671.2418233374,44153.8218709745,61459.6815406117,31008.7304653361,23105.5923602924
8412381450,22354,0,0,43286.6544537971,60961.1831694725,40277.2301662757,57329.5393695163,69988.8476471957,50659.5608343874,44155.5740193170,61451.3345005911,31008.7182976392,23096.7099416117
8412381450,22354,0,0,43296.1574250158,60956.0849045037,40264.9286247877,57327.2153394232,69975.8038762015,50658.4292385829,44150.9259591307,61447.8545392998,30987.1449711722,23104.8257953926
8412381450,22354,0,0,43320.4076447839,60969.3720294344,40270.8786285341,57339.5168809111,69995.1991849372,50671.1688171565,44158.6402789164,61464.1957561330,30988.5077532163,23114.1584188558
8412381450,22354,0,0,43310.5396426605,60970.6739729944,40281.7687171906,57344.0189287356,70004.2032805862,50670.9376309169,44167.8998961987,61468.4544500210,31007.3920186855,23102.8302931136
8412435471,22355,0,0,43293.6022086830,60958.1899160541,40271.6086903435,57330.8048099859,69996.8661594020,50666.1678937623,44162.6434511712,61459.9857330322,31003.9850635751,23103.2318271088
8412435471,22355,0,0,43289.5747010346,60954.3935946453,40263.6631843181,57324.5871169094,69998.2776122334,50662.7487709550,44157.8372109261,61456.9438088265,30999.1666556332,23106.4927698573
8412435471,22355,0,0,43284.3304237039,60957.1921649146,40269.8200389105,57331.7903934286,69993.0089995091,50659.8893622016,44165.6488722864,61456.6761194964,31003.4618526117,23100.0438905412
8412435471,22355,0,0,43286.1555782274,60959.6865427633,40274.9791423634,57333.3113555314,69990.5267893572,50669.6721904473,44168.2284240129,61455.4106790268,31000.9918101567,23103.6576964976
8412435471,22355,0,0,43307.5220538485,60962.6432930913,40271.8398765831,57330.1234189638,69994.8219863357,50674.0890643940,44158.7984589751,61459.1583296483,30991.3914973634,23111.8952272467
8412435471,22355,0,0,43318.3756394145,60961.3900203185,40272.0223920355,57327.4708610564,69985.5623690535,50660.4369085587,44152.9457968033,61466.0695814437,30990.8317833095,23114.5964559414
8412435471,22355,0,0,43315.6500753262,60959.0051517412,40268.1530644458,57329.2595124894,69985.1486673615,50643.5481453684,44154.2842434538,61463.2831788713,30988.3252377640,23112.2845935450
8412435471,22355,0,0,43320.0061107888,60963.6410442308,40263.1886441420,57336.9373291847,69997.0243394607,50656.3120593357,44160.5871104081,61464.9988241233,30983.6406744872,23114.0854126748
8412447757,22356,0,0,43318.5094840796,60968.5081229600,40265.8533697462,57342.0112587599,69991.2325157730,50661.9822060552,44168.4717779494,61464.8649794582,30990.1868953779,23104.7406215148
8412447757,22356,0,0,43305.5995577504,60965.9164035367,40271.1949886515,57340.2347750237,69989.3221873718,50666.1070552781,44173.6308814023,61463.9402344997,31000.3469222251,23096.5882646435
8412447757,22356,0,0,43295.5003693874,60957.4598542447,40263.6631843181,57327.8480596579,69987.9107345403,50661.0331257030,44165.1621644135,61454.2304124350,30992.7421117107,23100.6766107760
8412447757,22356,0,0,43289.5503656410,60950.1105653637,40256.1435476815,57319.6713673929,69984.1995870093,50654.4382340249,44153.8097032777,61448.5846011091,30986.7799402675,23100.3845860522
8412447757,22356,0,0,43276.1902345294,60947.2389889135,40262.5194208167,57320.7907955006,69973.4068399274,50656.8231026022,44157.2409937818,61444.3137395243,30992.8637886790,23088.6914294054
8412447757,22356,0,0,43275.5940173850,60944.6351017933,40260.3048999950,57318.4789331043,69954.4008974899,50653.7933460933,44152.0332195416,61437.8891956018,30978.3477263692,23089.7865221194
8412447757,22356,0,0,43299.8320694563,60953.3471727186,40259.8181921221,57321.2044971926,69983.8345561046,50672.6411084721,44143.2238070418,61445.6400184780,30971.6676608134,23107.6243656619
8412447757,22356,0,0,43297.8365671774,60958.7861331984,40273.6650311066,57327.3491840882,69992.8751548441,50668.5527623396,44148.0908857709,61455.9095545965,30995.9543836720,23104.9839754513
8412476419,22357,0,0,43282.2740829408,60949.8672114272,40265.4640034479,57323.3825149239,69980.1720793609,50653.0632842839,44149.9525433848,61449.8378738819,30998.7651216381,23100.7374492601
8412476419,22357,0,0,43284.9023054546,60951.9600552808,40254.7199271532,57323.9178935841,69988.4947839878,50656.9447795705,44151.3153254290,61449.6188553391,30994.4942600532,23100.4819276268
8412476419,22357,0,0,43278.4412584416,60953.2376634472,40259.3923227332,57323.0904902002,69985.0148226964,50658.4049031892,44156.9002982707,61449.4728429772,31003.7538773355,23090.9181179240
8412476419,22357,0,0,43264.5944194571,60944.3917478569,40258.8934471635,57313.2103203799,69971.6911946753,50653.6229983378,44154.8074544172,61441.1136352598,31002.7926292865,23087.0244549406
8412476419,22357,0,0,43265.7868537458,60929.0726175568,40241.3597960416,57296.3458925834,69954.4739036708,50646.2250386695,44135.0349470799,61429.3231370384,30979.1507943595,23093.2664834108
8412476419,22357,0,0,43287.2993417287,60929.1821268282,40235.4219599921,57299.0227858844,69959.2193054318,50657.7843506513,44128.5982354606,61439.8238593966,30967.4211346222,23107.3323409381
8412476419,22357,0,0,43301.4017023465,60947.5918521213,40259.3923227332,57326.6312899757,69984.5037794299,50671.1201463692,44151.8993748765,61458.7324602595,30989.9678768351,23105.5801925956
8412476419,22357,0,0,43294.0524134654,60955.1844949388,40266.4009161033,57336.3167766467,69981.9485630971,50663.8925344564,44165.1864998072,61454.3277540096,30997.7552028018,23100.2142382967
8412534438,22358,0,0,43293.4196932307,60952.1304030363,40254.9632810897,57326.4366068265,69972.1535671546,50656.0443700056,44159.2121606671,61447.6355207569,30986.9137849325,23105.7992111384
8412534438,22358,0,0,43284.0627343738,60946.2412377740,40254.8172687278,57318.8804670994,69973.5771876829,50654.1583769980,44155.4401746520,61448.2682409917,30991.4158327570,23107.9163903856
8412534438,22358,0,0,43271.9193729445,60942.2380655192,40255.4134858721,57312.7479479007,69974.1734048272,50653.8541845774,44153.3473307984,61443.9122055291,30993.4478381265,23108.7802968600
8412534438,22358,0,0,43273.9270429203,60941.8852023114,40251.0452827127,57313.2711588641,69979.2229990087,50648.4152240976,44150.0742203531,61441.5030015582,30983.2634758857,23107.5391917841
8412534438,22358,0,0,43271.4813358589,60943.0533012064,40251.1547919841,57319.1116533391,69972.8471258735,50638.8149113043,44153.7366970968,61439.7751886093,30982.6429233477,23091.8428628825
8412534438,22358,0,0,43266.3709031933,60938.4417441105,40250.4855686589,57317.8097097790,69965.1328060878,50641.5648107863,44158.1170679530,61437.3051461543,30976.8389319631,23083.8365183730
8412534438,22358,0,0,43274.4137507932,60936.3123971665,40241.6153176749,57309.1098065506,69963.0399622342,50645.1299459554,44144.5014152082,61435.3826500562,30957.7478156479,23092.4755831173
8412534438,22358,0,0,43294.0524134654,60940.9482896560,40241.5058084035,57310.0223838123,69979.5758622166,50654.6085817805,44139.2571378775,61446.9419620380,30960.5342182204,23101.0903124679
8412544195,22359,0,0,43289.3556824918,60943.6008475634,40249.0497804337,57317.8097097790,69977.7872107836,50652.5279056237,44149.5266739960,61449.3268306153,30976.3522240902,23087.7423490532
8412544195,22359,0,0,43287.6643726334,60949.0033049528,40251.4103136174,57324.4654399412,69985.1121642710,50663.1989757375,44155.9390502217,61448.5724334123,30984.1395500569,23078.0325269885
8412544195,22359,0,0,43284.4399329753,60953.2254957503,40256.7762679163,57326.4487745233,69987.8133929657,50665.4986704370,44157.3261676595,61448.1708994172,30991.3184911824,23075.8301738635
8412544195,22359,0,0,43269.6440136386,60947.6283552118,40260.9862910170,57319.5740258184,69977.5925276344,50650.8852665526,44154.2355726665,61443.7540254704,30994.8106201706,23068.1645248651
8412544195,22359,0,0,43263.8643576477,60935.8013538999,40245.4359744773,57304.8997834499,69968.4302519268,50632.8040690737,44140.8024353740,61434.6404205500,30978.8100988485,23074.9054289050
8412544195,22359,0,0,43280.2055744809,60938.2957317486,40232.4287065736,57303.3179828629,69973.5528522892,50635.9798379445,44132.4067245662,61442.9631251769,30963.2962853992,23096.2840722229
8412544195,22359,0,0,43282.8824677820,60944.7081079743,40242.5035595430,57312.5167616610,69980.6831226275,50643.8280023953,44141.9948696626,61450.6287741754,30978.3842294597,23097.0019663354
8412544195,22359,0,0,43273.2334842014,60943.8198661062,40254.2697223708,57316.9458033046,69977.8237138741,50655.1804635311,44154.0408895173,61448.6941103805,30988.9457903020,23092.2200614840
8412573969,22360,0,0,43279.2808295224,60940.0843831816,40249.7676745463,57312.2369046341,69979.3081728865,50661.5076658791,44147.9692088027,61447.2096513681,30980.1607131958,23097.7685312353
8412573969,22360,0,0,43283.4178464422,60937.1154651568,40254.9997841802,57311.4095012502,69983.7128791364,50666.4234153955,44144.6960983573,61452.5269348798,30985.6848475534,23096.9289601545
8412573969,22360,0,0,43277.3339980307,60936.9207820076,40264.2472337656,57312.4194200865,69976.5339380108,50658.5265801574,44148.4924197661,61450.8477927182,30991.5983482094,23086.5255793709
8412573969,22360,0,0,43273.9513783139,60934.9617828191,40253.6856729233,57304.3035663056,69963.4658316230,50648.2813794325,44143.2481424354,61441.0406290789,30973.4319768527,23084.7490956347
8412573969,22360,0,0,43281.0086424713,60942.2624009129,40252.2133816077,57310.8862902868,69976.1202363189,50664.0507145151,44145.0367938684,61448.3899179600,30975.4639822221,23099.1313132794
8412573969,22360,0,0,43276.4092530722,60946.4724240136,40267.7028596633,57316.0210583461,69970.7421143231,50663.7465220945,44153.2256538302,61452.8432949972,30993.3383288551,23105.6531987765
8412573969,22360,0,0,43276.4335884658,60939.9748739102,40258.5284162588,57306.6154287019,69967.9800471443,50653.1849612522,44142.2747266896,61445.2749875733,30979.6009991419,23106.5657760383
8412573969,22360,0,0,43293.9794072845,60941.7148545558,40247.0907812452,57309.6816883013,69972.1292317609,50653.3188059172,44141.0822924009,61450.1298986056,30969.8425062899,23108.8533030410
8412599233,22361,0,0,43295.9262387762,60946.5819332850,40250.0718669669,57321.5208573100,69962.4194096962,50649.9483538973,44151.7533625146,61455.8487161124,30978.8709373326,23094.4102469121
8412599233,22361,0,0,43291.0104892597,60951.1083165032,40256.9222802782,57327.7993888707,69979.5758622166,50658.1007107686,44162.6921219585,61456.0799023521,30991.2576526983,23086.2943931312
8412599233,22361,0,0,43280.5584376888,60949.0763111337,40255.0606226643,57321.3870126450,69983.7128791364,50651.1164527923,44158.0927325594,61448.8766258329,30987.8263621943,23086.3673993122
8412599233,22361,0,0,43263.6940098922,60942.9194565413,40258.2363915351,57313.3441650450,69980.3424271164,50652.1507070222,44151.1084745830,61442.7806097246,30994.5916016278,23087.5476659040
8412599233,22361,0,0,43255.8336777446,60935.2659752397,40253.9655299502,57304.8146095721,69958.1728835050,50637.6224770156,44144.0633781225,61433.2411354154,30984.4072393870,23085.6373375028
8412599233,22361,0,0,43266.2492262250,60935.1199628778,40245.9713531375,57303.6586783739,69964.8651167576,50641.0902706102,44135.5338226497,61428.6174106227,30966.6302343287,23090.9911241049
8412599233,22361,0,0,43277.9180474782,60944.6472694902,40257.2629757892,57316.2887476762,69974.1125663431,50656.9326118736,44144.5257506018,61439.5196669760,30977.8366831026,23091.6725151270
8412599233,22361,0,0,43269.3641566117,60942.3840778811,40266.1453944700,57314.8529594510,69967.7123578142,50657.6870090767,44148.7114383089,61436.6480905258,30988.7754425464,23084.8829402998
8412647661,22362,0,0,43271.6151805239,60936.4705772251,40253.6735052265,57300.0935432048,69958.2337219891,50652.6739179856,44136.6167476669,61438.0838787509,30972.5072318942,23099.8370396952
8412647661,22362,0,0,43285.2064978752,60942.5422579398,40253.3571451091,57300.6775926523,69980.5614456592,50663.0164602851,44130.7884208887,61449.4850106740,30974.4905664763,23108.4882721363
8412647661,22362,0,0,43276.0320544707,60947.2146535198,40269.5036787931,57310.1075576901,69977.7385399963,50662.5297524122,44142.8466084402,61452.0402270069,30997.4388426844,23093.0596325648
8412647661,22362,0,0,43258.2793848060,60940.4007432990,40267.2769902745,57306.9926273034,69960.1683857840,50650.5080679511,44145.9858742206,61438.2177234160,30994.0318875740,23079.9428553897
8412647661,22362,0,0,43269.9482060592,60940.7901095973,40259.0637949190,57306.1043854354,69967.9313763570,50657.6140028957,44141.5446648802,61442.3912434263,30982.5455817731,23093.8018620710
8412647661,22362,0,0,43274.2677384314,60939.9505385165,40260.0615460585,57308.3797447412,69959.7546840920,50643.5359776716,44138.4905729776,61441.8193616756,30984.9304503504,23089.2024726719
8412647661,22362,0,0,43274.6936078201,60931.4696538309,40248.6725818322,57303.3058151661,69954.5469098518,50638.6323958519,44137.3954802636,61443.1456406293,30976.2427148188,23089.7256836353
8412647661,22362,0,0,43284.5372745499,60936.4219064379,40247.2976320912,57308.4162478317,69973.4555107146,50652.0168623572,44139.1354609092,61446.0658878668,30975.0016097429,23095.5905135040
8412666510,22363,0,0,43287.9563973572,60947.7865352705,40264.1012214037,57319.2333303073,69980.2937563291,50661.3251504267,44152.0575549352,61453.8775492271,30994.2144030263,23092.5485892982
8412666510,22363,0,0,43270.6295970813,60944.8906234266,40272.5821060893,57319.2698333978,69976.1202363189,50666.1678937623,44161.4753522762,61450.3367494516,31009.1319993312,23085.0411203585
8412666510,22363,0,0,43267.5024989978,60939.3178182817,40266.7537793111,57309.9980484187,69976.2054101966,50673.6145242179,44156.0607271899,61446.1145586541,31000.9066362789,23093.4611665600
8412666510,22363,0,0,43279.2199910383,60939.6463460959,40262.7627747532,57307.0169626971,69984.1630839188,50670.2805752884,44148.7114383089,61449.6310230359,30994.0318875740,23103.1223178374
8412666510,22363,0,0,43277.6625258449,60944.9027911235,40265.6221835066,57312.6019355388,69973.5528522892,50653.6960045187,44154.9291313854,61452.8797980876,31000.0670651981,23103.2318271088
8412666510,22363,0,0,43276.3240791944,60948.6991125322,40257.7861867526,57312.0787245754,69977.2639998202,50649.5346522053,44156.2310749455,61449.6310230359,30988.8362810306,23100.6157722918
8412666510,22363,0,0,43280.1569036936,60955.8537182641,40252.7365925711,57311.4703397343,69988.3366039291,50656.6892579372,44149.6240155706,61453.7680399557,30983.8718607268,23100.6157722918
8412666510,22363,0,0,43275.4966758105,60957.0096494623,40261.3026511345,57312.9182956562,69990.2347646335,50660.2665608031,44149.7335248420,61457.1871627630,30997.2928303225,23095.1038056311
8412696572,22364,0,0,43271.2866527097,60949.6725282780,40258.1390499605,57307.1994781494,69977.7263722995,50646.8699266011,44144.4649121177,61452.9284688749,30990.3329077398,23096.9897986386
8412696572,22364,0,0,43286.3015905892,60951.3516704396,40250.9236057445,57310.9349610741,69987.6187098166,50651.9681915699,44142.0678758436,61454.3764247969,30977.2161305647,23109.7293772122
8412696572,22364,0,0,43291.7283833723,60959.5648657951,40262.2152283962,57322.7619623860,69979.1256574341,50656.2390531547,44152.9214614096,61459.2556712229,30985.9403691867,23108.5734460140
8412696572,22364,0,0,43293.5535378957,60965.4418633606,40269.5645172772,57328.3225998340,69980.8291349893,50663.3084850089,44159.9908932638,61461.9082291303,30993.6546889724,23107.6852041460
8412696572,22364,0,0,43304.2611110999,60963.8478950768,40268.9683001329,57319.5253550311,69989.6628828828,50675.7073680714,44152.8241198351,61462.4071047000,30988.7146040623,23111.5788671293
8412696572,22364,0,0,43310.0164316971,60967.2305147935,40278.0940727501,57321.5695280973,70001.1126855932,50677.5446902917,44150.2202327149,61469.0628348621,31000.7241208266,23105.0083108449
8412696572,22364,0,0,43288.6377883792,60960.7694677806,40281.6348725256,57321.9223913052,69990.6484663255,50653.0754519808,44154.1138956983,61457.9415599660,31013.2081777669,23077.6674960838
8412696572,22364,0,0,43266.6629279170,60947.3728335785,40264.4297492179,57308.8056141300,69968.5762642886,50641.5526430894,44149.2346492723,61438.4245742620,30998.7164508508,23065.1226006593
8412727546,22365,0,0,43269.2424796435,60943.4548352015,40248.5022340767,57299.2418044272,69962.4924158772,50651.7735084207,44139.6221687822,61434.7864329119,30981.7060106923,23078.6774149201
8412727546,22365,0,0,43270.6174293845,60947.1173119452,40262.7992778437,57300.4464064127,69978.0792355074,50670.9984694010,44140.7659322835,61446.5160926492,30997.6213581367,23086.9149456692
8412727546,22365,0,0,43269.1816411594,60945.8275360820,40273.8718819525,57301.6753437918,69979.7583776689,50670.9376309169,44140.4130690757,61444.9951305464,31003.1576601912,23092.2930676650
8412727546,22365,0,0,43282.6391138455,60951.6923659507,40271.0733116833,57308.0390492302,69989.5290382177,50672.2882452642,44140.2427213201,61447.9275454807,30995.4555081022,23101.9785543360
8412727546,22365,0,0,43294.8068106685,60960.9763186266,40277.5221909994,57323.1269932907,69987.7647221784,50664.0142114246,44154.3572496347,61454.7901264888,31004.0337343624,23098.6324377097
8412727546,22365,0,0,43282.6999523296,60953.7852098042,40271.4870133752,57318.2234114710,69971.0098036532,50643.2439529478,44155.5983547107,61445.5305092066,31000.5172699806,23092.0618814253
8412727546,22365,0,0,43275.8982098056,60936.7382665553,40250.3152209033,57296.8691035467,69952.4053952110,50636.5760550889,44135.0592824736,61434.2145511612,30974.6000757477,23096.3205753133
8412727546,22365,0,0,43285.5593610830,60935.6918446285,40249.4878175194,57296.0660355564,69971.3991699516,50652.8320980443,44124.1691938170,61444.8369504877,30975.0624482270,23105.7992111384
8412763209,22366,0,0,43276.4092530722,60942.4935871525,40264.6731031544,57304.6077587261,69975.3780068127,50656.9812826609,44133.5504880675,61450.5070972072,30991.7930313585,23098.8149531621
8412763209,22366,0,0,43272.0167145191,60947.2633243071,40266.8389531889,57309.3653281839,69983.4086867158,50667.7861974397,44143.8808626702,61451.2736621070,30998.2662460683,23089.6648451512
8412763209,22366,0,0,43283.4665172295,60956.9001401909,40272.8376277226,57321.6425342782,69992.4857885457,50678.1044043456,44158.6037758259,61457.9415599660,31007.2703417173,23094.6292654550
8412763209,22366,0,0,43283.3205048676,60955.5373581467,40277.5465263931,57326.5582837947,69986.4871140120,50668.1147252539,44166.3545987022,61458.3065908707,31015.4713693760,23098.9853009176
8412763209,22366,0,0,43274.3772477028,60939.6463460959,40263.9065382546,57308.7812787364,69972.6402750275,50645.8965108552,44150.4879220450,61444.9829628495,30996.8061224496,23106.1034035590
8412763209,22366,0,0,43276.5430977372,60932.0293678848,40250.3517239938,57298.1588794100,69968.6371027728,50645.7748338870,44136.6410830605,61441.7341877978,30980.1485454990,23114.8154744842
8412763209,22366,0,0,43280.3150837523,60939.9748739102,40262.1787253057,57313.4293389228,69978.8092973167,50657.4314874434,44149.5388416929,61450.7504511436,30993.3139934614,23107.7825457206
8412763209,22366,0,0,43280.9599716840,60946.2412377740,40268.9439647393,57321.9710620925,69974.7574542747,50662.5784231995,44161.8038800904,61454.5832756428,31000.6146115552,23105.1299878132
8412786590,22367,0,0,43296.1574250158,60949.3318327670,40263.2738180198,57319.4645165469,69979.6245330039,50657.5166613211,44152.7024428668,61454.0113938922,30984.8087733822,23109.8997249677
8412786590,22367,0,0,43296.7049713728,60947.8108706641,40260.1710553299,57317.4568465712,69992.7656455727,50652.8442657411,44146.0588804015,61453.5003506256,30987.7168529229,23099.6545242428
8412786590,22367,0,0,43277.3826688180,60938.2470609613,40257.9808699018,57311.1539796169,69978.9309742850,50636.2718626683,44146.9471222696,61441.5881754359,30991.7930313585,23076.6210741570
8412786590,22367,0,0,43266.6385925234,60929.9243563344,40244.4625587315,57304.5590879388,69970.4987603867,50631.9766656898,44142.6275898974,61425.7214987788,30973.9430201193,23065.3416192021
8412786590,22367,0,0,43269.0112934038,60934.3655656748,40242.1750317288,57306.6275963987,69971.4721761325,50637.0505952650,44144.5987567827,61425.3686355710,30972.8235920116,23066.5705565813
8412786590,22367,0,0,43264.3754009143,60933.9275285892,40248.8429295878,57306.6032610051,69963.3684900484,50646.7239142392,44151.0233007053,61427.2302931849,30986.2688970009,23069.1014375204
8412786590,22367,0,0,43269.8630321814,60934.3412302811,40252.6879217838,57304.0358769755,69969.8417047582,50666.0462167940,44149.2346492723,61429.1892923734,30988.5199209132,23083.5444936493
8412786590,22367,0,0,43288.9298131030,60940.9969604433,40250.9114380477,57307.1264719685,69977.9332231455,50664.5982608721,44145.2679801080,61437.8161894208,30984.6870964139,23096.0407182864
8412822941,22368,0,0,43297.1308407617,60949.6238574907,40255.9001937451,57319.2576657010,69974.2585787050,50656.0200346119,44154.7831190235,61447.4651730014,30988.1427223117,23093.7410235869
8412822941,22368,0,0,43298.2381011725,60955.4643519658,40259.3558196428,57327.9454012325,69985.7205491122,50656.8717733895,44161.7430416063,61450.6774449627,30990.6492678572,23082.4615686320
8412822941,22368,0,0,43295.9870772603,60959.0538225285,40258.7839378921,57325.5240295648,69995.5642158419,50659.3418158446,44159.5650238750,61451.9063823418,30990.2720692557,23081.8045130036
8412822941,22368,0,0,43285.5471933862,60952.1060676426,40259.6843474570,57319.3428395787,69989.6750505796,50647.7216653787,44154.7101128426,61445.8468693240,30995.2364895594,23078.7869241915
8412822941,22368,0,0,43273.6715212870,60935.2173044524,40247.3828059690,57304.6077587261,69953.1111216267,50624.6760475960,44142.6397575942,61431.0874530777,30983.5068298221,23079.7725076341
8412822941,22368,0,0,43290.0370735139,60938.2713963549,40237.1862760314,57305.3378205355,69965.6195139607,50638.1700233727,44138.2593867380,61434.0442034057,30965.9245079130,23098.7054438906
8412822941,22368,0,0,43297.4228654854,60952.9578064202,40252.3837293632,57319.4158457596,69979.2716697960,50658.1007107686,44146.7524391204,61444.2772364338,30977.8001800122,23107.0281485175
8412822941,22368,0,0,43282.2010767599,60958.1412452668,40271.2314917420,57327.0328239708,69985.3190151170,50661.6780136346,44158.8471297624,61445.8347016272,30999.9088851394,23101.2241571330
8412849287,22369,0,0,43273.2213165046,60949.4048389479,40266.0845559859,57315.7655367128,69981.3036751654,50655.1561281375,44152.8727906223,61440.2618964822,30993.7276951534,23099.8492073920
8412849287,22369,0,0,43279.8770466667,60946.2412377740,40255.8636906546,57307.1264719685,69986.2802631660,50658.7090956098,44143.8200241861,61441.4299953772,30988.1305546148,23097.8050343257
8412849287,22369,0,0,43278.0762275369,60949.8428760336,40258.4432423811,57313.3806681355,69986.1950892883,50649.6928322640,44152.6051012922,61445.2384844828,30993.8858752121,23086.1118776789
8412849287,22369,0,0,43269.5101689736,60946.0952254121,40250.9114380477,57312.4924262674,69975.4631806904,50633.9600002719,44152.9336291065,61437.2564753670,30980.7934334306,23073.5913176481
8412849287,22369,0,0,43284.0749020706,60949.2466588892,40242.6130688144,57316.0332260429,69980.5614456592,50645.0204366840,44152.2400703875,61440.2740641791,30966.4477188763,23078.6287441328
8412849287,22369,0,0,43300.9636652609,60955.2818365134,40249.9380223018,57327.7020472961,69988.8963179830,50656.9447795705,44158.9809744275,61452.4417610020,30976.8632673568,23084.3232262459
8412849287,22369,0,0,43304.4436265522,60953.2011603567,40250.8627672604,57328.9431523720,69987.8377283594,50656.7744318149,44159.8083778114,61455.9825607775,30978.6397510929,23092.0253783348
8412849287,22369,0,0,43305.8672470805,60956.0240660196,40251.6901706443,57325.7308804108,69995.8319051720,50660.5464178301,44156.1945718550,61457.9050568755,30977.2161305647,23095.6513519881
8412880532,22370,0,0,43301.9614164004,60957.5571958193,40258.5527516525,57324.6479553935,69989.6993859733,50658.6969279130,44157.4843477182,61457.6617029390,30983.5676683062,23090.2245592051
8412880532,22370,0,0,43287.5061925747,60952.9699741171,40263.8335320736,57321.2044971926,69987.5213682420,50651.5909929684,44157.2531614786,61452.7459534226,30993.1436457059,23077.4484775410
8412880532,22370,0,0,43277.9545505687,60942.4570840620,40253.3449774122,57307.3941612986,69986.3045985597,50646.0181878235,44146.6064267585,61444.4719195830,30985.2103073773,23077.1929559077
8412880532,22370,0,0,43274.1703968568,60933.6355038654,40241.7004915527,57295.2873029598,69973.8083739225,50641.9906801751,44129.1944526049,61435.6868424768,30977.3134721392,23077.7891730520
8412880532,22370,0,0,43280.3150837523,60936.8964466140,40245.4481421742,57304.5712556357,69971.1071452278,50651.8830176921,44137.4563187477,61446.4674218619,30983.0322896460,23090.3705715669
8412880532,22370,0,0,43285.6201995672,60946.4237532263,40251.7145060380,57313.7213636465,69981.2915074686,50660.7532686760,44146.8984514823,61451.5900222244,30988.3130700672,23096.3327430102
8412880532,22370,0,0,43285.4620195084,60951.6801982538,40253.6248344392,57312.1760661500,69986.8521449167,50669.0881409998,44146.9106191791,61450.7139480531,30989.1526411480,23094.9577932692
8412880532,22370,0,0,43279.1226494637,60953.4931850804,40264.4175815211,57311.9935506977,69988.1784238704,50669.3314949362,44149.3684939373,61451.9550531291,31002.6952877119,23084.2380523682
8412914194,22371,0,0,43275.3749988422,60947.5553490309,40261.9718744597,57307.9660430493,69983.6763760459,50661.1913057617,44150.6095990133,61450.0812278184,30998.4730969143,23081.0622834974
8412914194,22371,0,0,43290.5116136900,60953.8947190756,40259.1368011000,57314.2202392163,69999.7255681554,50665.0849687450,44153.1039768620,61456.9073057360,30988.9214549083,23091.2101426477
8412914194,22371,0,0,43300.0754233928,60963.7018827149,40268.3477475949,57329.3081832767,70006.0649382001,50661.6536782409,44165.3568475627,61465.2056749693,30998.9233016968,23088.8131063736
8412914194,22371,0,0,43288.1632482031,60956.0118983228,40267.9948843871,57325.8038865917,69989.6750505796,50651.9681915699,44165.2716736849,61454.8996357602,30999.8967174426,23074.7107457558
8412914194,22371,0,0,43275.6426881723,60942.6639349080,40251.5076551920,57306.2503977972,69980.1842470577,50652.0290300540,44145.3774893794,61442.9631251769,30985.2346427710,23076.2560432523
8412914194,22371,0,0,43270.4349139321,60937.2128067314,40246.2877132549,57295.3481414439,69970.3284126311,50648.4273917944,44129.3161295731,61438.9842883158,30978.4815710342,23078.0690300789
8412914194,22371,0,0,43277.4556749990,60939.0866320421,40250.1935439351,57304.7294356944,69974.2464110081,50652.7225887729,44139.0624547283,61451.8455438577,30981.2679736067,23086.5134116741
8412914194,22371,0,0,43286.1312428337,60949.3805035543,40261.9110359756,57317.6880328108,69990.6119632350,50661.9091998742,44152.7632813509,61457.8563860882,30985.1859719837,23089.1781372783
8412945470,22372,0,0,43296.3521081650,60959.8933936093,40268.0678905680,57325.7308804108,69998.1194321747,50662.7852740455,44161.4023460952,61463.6360420791,30986.7191017834,23087.8031875373
8412945470,22372,0,0,43284.2209144325,60956.5472769830,40271.6816965244,57317.6758651140,69992.4857885457,50660.8871133411,44160.4045949557,61458.4891063230,30994.5672662342,23074.4308887289
8412945470,22372,0,0,43274.2677384314,60947.2268212166,40265.0259663623,57306.9439565161,69982.3622647890,50659.9745360794,44152.6781074732,61449.5215137645,30993.2409872805,23074.8689258145
8412945470,22372,0,0,43285.5350256894,60943.6860214412,40254.7929333342,57306.0800500417,69987.2658466087,50659.4513251160,44142.5302483228,61445.8347016272,30984.4315747807,23084.5544124856
8412945470,22372,0,0,43291.3876878612,60948.9546341655,40262.4464146358,57317.5420204489,69981.8877246129,50659.4391574192,44150.9624622211,61455.0213127285,30995.5406819800,23085.3818158695
8412945470,22372,0,0,43291.8135572500,60951.3151673491,40268.7614492869,57321.4721865227,69980.8778057766,50658.6604248225,44158.3604218895,61455.0699835158,30995.5406819800,23089.5553358798
8412945470,22372,0,0,43298.8708214073,60953.1159864789,40261.4729988900,57314.3784192750,69989.3708581590,50664.9511240800,44149.8186987198,61458.3065908707,30982.3022278366,23100.2872444776
8412945470,22372,0,0,43305.4778807822,60957.3381772765,40267.5933503919,57315.8750459842,70002.3416229723,50676.7294546046,44148.1395565582,61467.5418727593,30990.1868953779,23105.5801925956
8412999264,22373,0,0,43292.8356437832,60959.0781579222,40278.3495943834,57321.6912050655,70002.0374305517,50666.4112476987,44155.9877210090,61467.8460651799,31006.2360874874,23094.5197561836
8412999264,22373,0,0,43281.9212197330,60954.8924702151,40270.2702436930,57320.6326154419,69998.0950967811,50657.9912014972,44155.8782117376,61456.6517841027,30999.3005002983,23081.8410160940
8412999264,22373,0,0,43285.0604855133,60958.7252947143,40269.6375234582,57324.1125767333,69999.5430527030,50667.3968311414,44157.7520370483,61455.4958529046,31000.3104191346,23083.2037981382
8412999264,22373,0,0,43279.1469848573,60954.6491162786,40269.8565420010,57322.3239253003,69984.5402825203,50661.6293428473,44156.5109319724,61451.0911466547,31002.1599090517,23083.9460276444
8412999264,22373,0,0,43276.5430977372,60943.1019719937,40254.1723807962,57307.0412980907,69974.5141003382,50653.0997873744,44141.7393480294,61443.7905285609,30983.7988545459,23089.0199572196
8412999264,22373,0,0,43288.5891175919,60943.6616860475,40246.6892472501,57303.2084735915,69984.8079718504,50660.8627779475,44131.2994641553,61448.1343963267,30971.5581515420,23096.6126000371
8412999264,22373,0,0,43284.6467838213,60951.5828566792,40265.3301587828,57315.6316920477,69989.8940691224,50665.3648257719,44142.5302483228,61451.1641528356,30988.4347470354,23084.1528784904
8412999264,22373,0,0,43282.9068031756,60956.5472769830,40274.2734159477,57325.7917188949,69982.2405878208,50670.0615567456,44159.5771915718,61450.1055632120,30999.4465126602,23080.0767000547
8413005445,22374,0,0,43297.1430084585,60960.3070953013,40269.6983619423,57326.8868116089,69991.6462174649,50677.4595164139,44159.3946761194,61452.6364441512,30995.7110297355,23092.7432724474
8413005445,22374,0,0,43297.9704118424,60961.0006540202,40272.0345597323,57325.0616570855,70000.7719900822,50673.6145242179,44156.6569443343,61456.7856287678,31004.0093989688,23093.6071789218
8413005445,22374,0,0,43285.1578270879,60952.0330614617,40272.7281184512,57323.8205520096,69991.0865034111,50656.5432455753,44160.0030609606,61449.4485075836,31006.8323046317,23081.2691343434
8413005445,22374,0,0,43284.6224484277,60946.1925669867,40260.3657384791,57323.2365025621,69987.4970328483,50653.9636938488,44154.3085788474,61443.9243732259,30991.6713543903,23084.2867231555
8413005445,22374,0,0,43291.8622280373,60948.7112802290,40258.5162485620,57328.5902891642,69985.8422260804,50649.6076583862,44155.9390502217,61443.4133299594,30984.7357672012,23086.9757841533
8413005445,22374,0,0,43280.5462699920,60942.6761026048,40256.8006033100,57323.2973410462,69958.8421068303,50636.7464028444,44151.7411948178,61436.0275379879,30978.7979311516,23084.9681141775
8413005445,22374,0,0,43290.7549676264,60939.0987997389,40252.6027479060,57320.3649261118,69972.9566351449,50659.4269897223,44147.1661408124,61443.4741684435,30971.5581515420,23099.9343812698
8413005445,22374,0,0,43307.3273706993,60952.3129184886,40265.3301587828,57333.9805788567,69999.1536864047,50680.5866144974,44154.0165541237,61457.9293922692,30988.7024363655,23105.2151616909
8413036679,22375,0,0,43300.5499635689,60955.5373581467,40277.1571600947,57343.0576806866,69994.9679986976,50669.6113519631,44164.2982579391,61457.3453428217,31009.2171732090,23084.7734310284
8413036679,22375,0,0,43279.8648789699,60946.7036102532,40272.5212676052,57336.2437704658,69976.6677826759,50659.9015298984,44165.2351705945,61440.7972751425,31006.4064352429,23066.7774074272
8413036679,22375,0,0,43279.8405435763,60944.5864310060,40263.0182963865,57327.9940720198,69977.4951860599,50669.0029671220,44159.4190115131,61437.3781523352,30993.9832167867,23073.8955100687
8413036679,22375,0,0,43280.5341022952,60946.1195608057,40265.7560281716,57324.4532722443,69980.7439611116,50664.7686086276,44155.4766777425,61441.8315293724,30998.5461030953,23080.7945941673
8413036679,22375,0,0,43270.8972864114,60940.3764079053,40260.9254525329,57318.3572561361,69966.3739111637,50649.3521367530,44151.6560209400,61438.2298911128,30995.3703342245,23080.2348801134
8413036679,22375,0,0,43279.9865559381,60942.8342826635,40250.6559164144,57315.4248412017,69959.1219638572,50651.3841421224,44142.2138882054,61435.5043270245,30974.8434296842,23089.1172987942
8413036679,22375,0,0,43304.7356512760,60957.7153758780,40256.6302555544,57333.0071631109,69980.0382346959,50669.4775072981,44155.0994791409,61456.8586349487,30979.8565207752,23102.3922560280
8413036679,22375,0,0,43300.8298205958,60963.3003487197,40274.2977513413,57346.0631018019,69985.3798536011,50669.0516379093,44172.9494903802,61461.1538319272,31004.3622621766,23095.0186317533
8413077720,22376,0,0,43288.2362543841,60949.7698698526,40269.3576664312,57335.7813979865,69971.1071452278,50665.0606333514,44166.8291388783,61447.4043345173,30999.4951834475,23093.2786511076
8413077720,22376,0,0,43283.9532251024,60945.0974742726,40268.2625737172,57327.6655442056,69978.8701358009,50679.0656523946,44155.8660440408,61446.1997325318,31001.2229963963,23099.9708843602
8413077720,22376,0,0,43270.1550569052,60946.5819332850,40278.5686129262,57330.7926422891,69978.9309742850,50676.9728085410,44160.6844519827,61446.1875648350,31015.3253570141,23093.3394895917
8413077720,22376,0,0,43261.6498368260,60944.6107663997,40275.9160550188,57329.9774066020,69971.7033623721,50670.0858921392,44161.4145137920,61437.7310155431,31007.0513231745,23087.2434734834
8413077720,22376,0,0,43277.2001533657,60947.5188459404,40270.1607344216,57329.9409035115,69977.5681922408,50675.7560388587,44158.5429373418,61440.4200765409,30996.6114393004,23093.4855019536
8413077720,22376,0,0,43282.0185613076,60942.8464503604,40269.3941695217,57323.1513286843,69958.3067281701,50660.8384425538,44150.9746299180,61439.6413439443,30994.4577569628,23094.0452160075
8413077720,22376,0,0,43280.7652885348,60936.2150555919,40263.7605258927,57317.7367035981,69957.4063186052,50654.8641034137,44146.5455882744,61436.6967613131,30986.6704309961,23096.6126000371
8413077720,22376,0,0,43287.3966833033,60941.6905191622,40262.8966194183,57320.1337398722,69974.3072494923,50662.8096094391,44146.4482466998,61439.6900147316,30983.2148050984,23109.5955325472
8413124360,22377,0,0,43290.9618184724,60952.9456387234,40276.1229058648,57335.9760811357,69981.9242277034,50672.7627854403,44161.0859859778,61448.9131289234,30996.8426255401,23110.9583145913
8413124360,22377,0,0,43273.7566951648,60952.2399123077,40285.8935664136,57337.8134033559,69974.8547958493,50673.8092073671,44170.2239262919,61444.2772364338,31010.4217751945,23093.6558497091
8413124360,22377,0,0,43261.8688553688,60945.3043251186,40278.0819050533,57321.8737205179,69972.1048963673,50671.6555250294,44160.2464148970,61433.3506446868,30997.7552028018,23089.2876465497
8413124360,22377,0,0,43268.5002501373,60943.4426675047,40268.4450891695,57312.4802585706,69975.6700315364,50666.0340490972,44147.1539731156,61431.1726269555,30986.0133753676,23092.8162786283
8413124360,22377,0,0,43269.4371627926,60940.1208862720,40267.8853751157,57314.4757608495,69967.5420100587,50651.8465146017,44147.0322961473,61432.4137320314,30985.2954812551,23082.3642270574
8413124360,22377,0,0,43269.4858335799,60936.4827449220,40260.1832230267,57317.0796479696,69959.4018208841,50648.1231993738,44147.7136871694,61426.3785544073,30972.3733872291,23080.6972525927
8413124360,22377,0,0,43277.9180474782,60939.9140354260,40255.1457965420,57318.8074609185,69964.7921105767,50658.6725925193,44143.6983472178,61427.8995165101,30964.4522165974,23089.1781372783
8413124360,22377,0,0,43281.8847166425,60942.9316242381,40266.8876239762,57322.9079747478,69958.6230882875,50667.9078744079,44148.7601090962,61439.0329591031,30981.4504890590,23101.8082065805
8413132877,22378,0,0,43288.6377883792,60941.5201714067,40266.3279099223,57320.7421247134,69959.1706346445,50674.1620705749,44142.2625589927,61439.7265178220,30980.7447626433,23108.6951229823
8413132877,22378,0,0,43304.4071234618,60947.2511566103,40265.7195250812,57323.5650303763,69985.0269903933,50681.6938749083,44142.6762606847,61451.4683452562,30983.2756435825,23116.8961506409
8413132877,22378,0,0,43294.1010842527,60954.8437994278,40279.1283269801,57333.6033802552,69988.3122685355,50670.4022522566,44154.8926282950,61452.3930902147,31001.9287228120,23094.1547252789
8413132877,22378,0,0,43270.0942184211,60948.6017709576,40278.4469359580,57330.6953007145,69969.6226862154,50653.0389488903,44161.0129797969,61438.2177234160,31005.5303610716,23075.0027704796
8413132877,22378,0,0,43266.2127231346,60940.4615817831,40261.1809741662,57315.4248412017,69961.7015155837,50656.4824070912,44148.5289228566,61430.4912359334,30987.6316790451,23084.2137169745
8413132877,22378,0,0,43272.7102732380,60939.4151598563,40258.0417083859,57307.5523413573,69970.5595988708,50664.3549069356,44140.3400628947,61437.4876616066,30985.8673630058,23095.3471595675
8413132877,22378,0,0,43267.6120082692,60938.5025825946,40266.6077669493,57309.6330175140,69969.7565308805,50663.4179942803,44142.3599005673,61441.0771321694,30997.8282089827,23092.9501232934
8413132877,22378,0,0,43268.0257099612,60938.9406196802,40264.3689107338,57313.4536743164,69969.0751398584,50663.1868080406,44146.5942590617,61437.9865371764,30990.9777956714,23094.5075884867
8413162180,22379,0,0,43284.2695852198,60943.0046304191,40257.5063297257,57318.7709578280,69959.1706346445,50655.8861899469,44145.0732969588,61441.2231445313,30975.8290131268,23105.2881678719
8413162180,22379,0,0,43286.7639630685,60942.3962455779,40263.2981534134,57323.6988750413,69967.0796375794,50656.6284194531,44149.1981461818,61442.5372557881,30983.7623514554,23101.5891880377
8413162180,22379,0,0,43272.9901302649,60934.5359134303,40265.8412020494,57319.4280134565,69963.4293285325,50661.0817964903,44147.2026439028,61435.6990101736,30993.3139934614,23097.0749725164
8413162180,22379,0,0,43270.2402307830,60928.9752759822,40256.3625662243,57309.6573529076,69963.7213532563,50658.1980523432,44136.7749277256,61429.8950187891,30987.2909835340,23094.7144393327
8413162180,22379,0,0,43272.8562855999,60932.7107589069,40259.5870058824,57316.3982569476,69951.9916935190,50656.4459040007,44142.2017205086,61436.4655750735,30990.6371001604,23095.1038056311
8413162180,22379,0,0,43274.0365521917,60941.5080037098,40267.8732074188,57323.7232104350,69959.3896531873,50661.9700383583,44154.4180881189,61443.4985038371,30995.6501912514,23096.8681216704
8413162180,22379,0,0,43272.7224409348,60945.7666975979,40269.1508155852,57320.2554168404,69958.0268711432,50662.7487709550,44148.7114383089,61441.8193616756,30988.0210453434,23102.5626037835
8413162180,22379,0,0,43279.6093573366,60945.2921574218,40268.4450891695,57315.1571518716,69969.8417047582,50669.8912089901,44143.5279994623,61450.6652772659,30986.9624557198,23112.1872519705
8413194264,22380,0,0,43272.2722361524,60940.5224202672,40276.0864027743,57314.9624687225,69969.9025432423,50668.9299609411,44148.3220720106,61451.9672208259,30998.0350598287,23104.4607644879
8413194264,22380,0,0,43272.6494347539,60944.3065739791,40279.9070595767,57321.6668696719,69979.6367007007,50685.4171901362,44155.4888454393,61451.5778545276,31006.4307706365,23105.5923602924
8413194264,22380,0,0,43284.7806284864,60958.1047421763,40289.8480678811,57334.8809884216,69989.9305722129,50690.9656598874,44165.9408970102,61458.3187585675,31015.9337418553,23109.1818308552
8413194264,22380,0,0,43279.0374755859,60955.3913457848,40294.9585005467,57331.9485734873,69979.2473344024,50673.0548101640,44166.5492818513,61450.7382834468,31019.6205539926,23099.3503318223
8413194264,22380,0,0,43272.4912546952,60944.0997231331,40280.4789413274,57315.5343504731,69967.8218670856,50657.3463135656,44149.6483509643,61439.5805054602,30998.9233016968,23099.7396981206
8413194264,22380,0,0,43283.7220388628,60940.7414388100,40262.2760668803,57304.4617463643,69959.9615349380,50650.0091923814,44132.8690970454,61438.4975804429,30976.5469072394,23112.3089289387
8413194264,22380,0,0,43295.1718415732,60946.5697655882,40267.2039840936,57315.4735119890,69971.9953870959,50659.8041883239,44140.8024353740,61452.8067919067,30981.7911845701,23113.7933879511
8413194264,22380,0,0,43290.1952535726,60953.8460482883,40282.9368160856,57329.8313942401,69980.6101164465,50674.6852815383,44157.7642047452,61456.3962624695,31000.1887421664,23102.9398023850
8413244232,22381,0,0,43288.6377883792,60954.7221224596,40282.8516422079,57328.7484692228,69976.3392548617,50687.6925494420,44161.8768862713,61455.2768343617,31001.9652259025,23105.6653664734
8413244232,22381,0,0,43285.4133487212,60953.8703836820,40289.9332417588,57326.6312899757,69982.3500970922,50687.5100339897,44160.3072533812,61456.1894116235,31013.9260718795,23102.8789639009
8413244232,22381,0,0,43281.1059840458,60951.4976828015,40292.9386628741,57329.1500032180,69978.7849619231,50668.6379362173,44164.9431458707,61450.7991219309,31016.6759713615,23101.6865296123
8413244232,22381,0,0,43289.5260302473,60949.4900128257,40279.2500039483,57327.6047057215,69977.7872107836,50654.0367000298,44158.1292356499,61444.3259072211,30996.6114393004,23107.0403162144
8413244232,22381,0,0,43292.1907558515,60952.4345954568,40269.2968279471,57329.0891647339,69972.7254489053,50653.6960045187,44158.2022418308,61447.8058685125,30986.1715554263,23105.0326462386
8413244232,22381,0,0,43282.3349214250,60952.2642477013,40272.2657459719,57329.8192265433,69968.0773887189,50659.1958034827,44160.1490733225,61449.9838862438,30988.3374054608,23100.4940953236
8413244232,22381,0,0,43282.8703000852,60949.6968636717,40268.5667661377,57322.8836393542,69966.2522341955,50670.8524570391,44153.6271878254,61453.7923753494,30984.6140902330,23111.2625070119
8413244232,22381,0,0,43295.6098786588,60956.9366432813,40274.7966269111,57325.1468309633,69989.3951935527,50682.8376384097,44148.7966121867,61461.9934030080,30990.8074479159,23122.8461543874
8413256728,22382,0,0,43287.7130434207,60957.2651710956,40285.6988832644,57330.5249529590,69984.4307732489,50663.8681990627,44154.9169636886,61462.7234648174,31005.3600133161,23105.7140372607
8413256728,22382,0,0,43269.0112934038,60948.2610754466,40279.0431531023,57327.0571593645,69970.0728909979,50644.3877164492,44159.2364960607,61446.3214095001,30998.5582707921,23088.4845785594
8413256728,22382,0,0,43267.0036234280,60942.2258978224,40262.3977438485,57316.6416108840,69964.3054027038,50644.5945672952,44152.8727906223,61435.7963517482,30978.8831050294,23090.2123915082
8413256728,22382,0,0,43267.6606790565,60940.2425632403,40260.4752477505,57313.8795437052,69963.1251361120,50653.4039797950,44149.6726863579,61436.8792767655,30980.2702224672,23087.9248645055
8413256728,22382,0,0,43267.9648714771,60934.9861182127,40263.1278056579,57316.1427353143,69961.2634784980,50653.8176814870,44152.6659397764,61438.7287666826,30983.2878112793,23085.3088096886
8413256728,22382,0,0,43277.9667182655,60937.6508438170,40261.4729988900,57320.9003047720,69970.1337294820,50661.5076658791,44153.7245294000,61442.9144543896,30975.8533485205,23091.8915336698
8413256728,22382,0,0,43286.2285844083,60948.5409324735,40267.7515304506,57332.9341569299,69976.4852672236,50669.5626811759,44162.4852711125,61452.9649719654,30979.6131668388,23094.7387747264
8413256728,22382,0,0,43283.3813433517,60955.8172151736,40285.6380447803,57343.0576806866,69980.9508119576,50674.8556292938,44174.4826201799,61459.6937083085,30996.0030544593,23095.1159733279
8413285055,22383,0,0,43282.2375798504,60950.7919563858,40285.3946908439,57335.6718887151,69978.8823034977,50674.5149337828,44171.2216774313,61455.4715175109,30991.6470189967,23105.6410310797
8413285055,22383,0,0,43293.7603887417,60949.7211990653,40280.7466306575,57331.0359962256,69985.9882384423,50669.0638056061,44165.1986675040,61455.6662006601,30986.7921079643,23113.0024876576
8413285055,22383,0,0,43292.3854390007,60948.4557585958,40283.5573686236,57329.0039908561,69970.8394558977,50650.1065339560,44162.3392587506,61448.5359303218,30989.0431318766,23101.4553433726
8413285055,22383,0,0,43288.0050681444,60942.8099472699,40272.4482614243,57324.5019430316,69952.3323890300,50643.7914993049,44158.6524466132,61443.6810192895,30975.1111190143,23101.1146478616
8413285055,22383,0,0,43301.8032363417,60948.2002369625,40265.3058233892,57324.3559306698,69966.6172651002,50661.9335352679,44148.5167551597,61449.8622092755,30962.0430126264,23113.1850031099
8413285055,22383,0,0,43296.9848283998,60955.4400165721,40281.2820093177,57332.4109459666,69983.7007114396,50666.0583844909,44152.7876167446,61459.1096588610,30989.6636844145,23101.9907220328
8413285055,22383,0,0,43270.4592493258,60944.2822385855,40283.0219899634,57324.9764832077,69969.1481460393,50652.7469241666,44152.7024428668,61446.4795895588,31003.4010141276,23088.7766032831
8413285055,22383,0,0,43268.9626226165,60936.4097387410,40269.9782189692,57315.0233072066,69965.3153215401,50651.5423221811,44147.1053023283,61437.7553509367,30989.7853613828,23091.3439873128
8413319300,22384,0,0,43279.2199910383,60941.4471652257,40270.5501007199,57319.5131873342,69965.6438493543,50652.7955949538,44150.6339344069,61442.1600571866,30984.6627610203,23097.4643388147
8413319300,22384,0,0,43276.1658991357,60946.2412377740,40280.7587983543,57326.2662590710,69970.6569404454,50660.7654363729,44161.2685014302,61444.9099566686,30992.2189007473,23092.8649494156
8413319300,22384,0,0,43274.0365521917,60946.8739580088,40282.5961205746,57322.2995899067,69977.7872107836,50672.8236239244,44158.2874157086,61440.8702813234,30993.2166518868,23098.8271208589
8413319300,22384,0,0,43279.4390095811,60948.2367400529,40283.3261823840,57318.8317963122,69985.9395676550,50675.7925419492,44149.9403756880,61443.6201808054,30996.8547932369,23104.6676153339
8413319300,22384,0,0,43275.3263280549,60946.9591318865,40289.4465338859,57322.2509191194,69979.6853714880,50659.0862942113,44152.2400703875,61447.0879743999,31005.4573548907,23097.0384694259
8413319300,22384,0,0,43270.3740754480,60936.9329497044,40274.1030681922,57315.6438597445,69950.3977252352,50638.1091848886,44145.6208433159,61431.3916454983,30981.7668491764,23087.7788521436
8413319300,22384,0,0,43297.3376916076,60943.0533012064,40260.6334278092,57319.9633921167,69966.2522341955,50659.0984619081,44148.7844444898,61441.3569891963,30965.2187814972,23104.6919507275
8413319300,22384,0,0,43299.8320694563,60954.7586255500,40276.9503092488,57331.8877350032,69984.6497917917,50670.0737244424,44162.9354758949,61453.1353197209,30990.6492678572,23103.1344855342
8413369332,22385,0,0,43278.8184570431,60950.0497268796,40282.2067542763,57326.1689174964,69978.8579681040,50668.6744393078,44167.6808776559,61450.9816373833,31002.3789275945,23103.9862243118
8413369332,22385,0,0,43278.5751031067,60948.5652678672,40278.1427435374,57322.1170744543,69985.8908968677,50670.1954014107,44166.3302633085,61453.9018846208,30999.3735064792,23112.0412396086
8413369332,22385,0,0,43282.8459646915,60950.8041240826,40283.3991885649,57331.1941762843,69988.2757654450,50665.7663597671,44174.5434586640,61458.9271434086,31004.7272930813,23106.9551423366
8413369332,22385,0,0,43274.1095583726,60945.6693560233,40282.7177975428,57333.0680015950,69975.5240191745,50650.4350617702,44177.9990845617,61449.7283646105,31000.5902761615,23092.6337631760
8413369332,22385,0,0,43275.2411541772,60938.2348932645,40261.8015267042,57319.8538828453,69958.7447652557,50646.8942619947,44162.1689109951,61440.6512627806,30978.6154156993,23097.7441958416
8413369332,22385,0,0,43291.5093648295,60944.3187416759,40259.3923227332,57317.7002005076,69974.5871065192,50673.2251579196,44154.5762681776,61451.5656868308,30980.8299365211,23109.2426693393
8413369332,22385,0,0,43290.7793030201,60951.1448195936,40274.3220867350,57324.0882413397,69972.6646104212,50673.2981641005,44159.1391544862,61459.0974911642,30998.2905814620,23107.3080055445
8413369332,22385,0,0,43291.1199985311,60952.4345954568,40275.4780179332,57326.9354823962,69982.1675816399,50675.0503124430,44161.5970292444,61454.3155863127,31000.4320961028,23102.0393928201
8413384285,22386,0,0,43292.7991406927,60955.1358241515,40277.0598185202,57331.7538903381,69979.8557192435,50681.1584962481,44166.0625739784,61452.5025994861,31001.7340396629,23098.3160775923
8413384285,22386,0,0,43285.2673363593,60955.8172151736,40288.9598260130,57337.4605401481,69976.8259627346,50678.0435658615,44180.1040961121,61452.2105747624,31014.9481584126,23088.3507338943
8413384285,22386,0,0,43276.0077190770,60946.1803992899,40286.5262866484,57327.2640102104,69967.6636870269,50661.5563366664,44174.4947878767,61438.7531020762,31006.3455967588,23087.9370322023
8413384285,22386,0,0,43279.5728542462,60937.9550362376,40270.3554175707,57313.5753512846,69966.0453833495,50661.5198335759,44154.0773926078,61432.9612783885,30986.0498784581,23101.8933804583
8413384285,22386,0,0,43285.1943301783,60941.3863267416,40271.9493858545,57317.5176850553,69967.7975316920,50659.1836357859,44150.6095990133,61439.9942071521,30989.2256473289,23107.8068811142
8413384285,22386,0,0,43278.0883952338,60938.2227255677,40269.2359894630,57312.9426310498,69953.9506927075,50647.9285162247,44152.0697226320,61434.9446129706,30984.8209410790,23099.1799840667
8413384285,22386,0,0,43278.9279663145,60933.9883670733,40258.8934471635,57305.9705407703,69957.0534553973,50660.5585855269,44142.9926208021,61433.1802969313,30971.9231824467,23099.3259964286
8413384285,22386,0,0,43282.8824677820,60935.3633168143,40267.7515304506,57307.0412980907,69967.4933392714,50674.8921323843,44144.5379182986,61442.0018771279,30984.8331087758,23099.9343812698
8413411131,22387,0,0,43275.3749988422,60931.8103493420,40276.9989800360,57311.2999919787,69964.5000858530,50669.6113519631,44149.4901709056,61442.1235540961,30998.0350598287,23093.7653589805
8413411131,22387,0,0,43281.4345118601,60935.1564659683,40275.4780179332,57317.2134926347,69964.6339305180,50671.5460157580,44156.9976398453,61446.8324527666,30993.2288195836,23102.5991068740
8413411131,22387,0,0,43304.3584526745,60950.9014656572,40278.2644205056,57331.1455054970,69973.7718708320,50672.3247483547,44164.0670716995,61457.4183490026,30988.8362810306,23113.0633261417
8413411131,22387,0,0,43306.2322779852,60959.3336795555,40290.3104403603,57340.6119736252,69970.0242202106,50671.1566494597,44177.8044014125,61468.1137545100,31001.7218719661,23107.8555519015
8413411131,22387,0,0,43296.7414744633,60955.0749856674,40288.4731181401,57327.3491840882,69968.1503948998,50672.3125806578,44169.9684046586,61463.2345080840,30998.6191092762,23104.2417459451
8413411131,22387,0,0,43302.5698012415,60956.6446185576,40285.6380447803,57321.6060311878,69985.7205491122,50685.2955131679,44163.7750469757,61469.3791949795,30999.7628727776,23107.3688440286
8413411131,22387,0,0,43300.2701065420,60959.3458472523,40297.0270090066,57334.6619698788,69989.0666657385,50674.0647290003,44176.9161595445,61471.4963742267,31018.6471382468,23100.3237475681
8413411131,22387,0,0,43280.9599716840,60949.5751867035,40292.8048182090,57333.2505170473,69968.4910904109,50661.6780136346,44181.7832382737,61458.5377771103,31015.0211645935,23096.9411278513
8413471520,22388,0,0,43282.0185613076,60945.6450206297,40277.9602280851,57326.2784267678,69963.5875085912,50670.9497986137,44175.7723960431,61455.7027037506,30994.9809679261,23109.6685387281
8413471520,22388,0,0,43288.2970928682,60950.4999316620,40282.2554250636,57327.3370163914,69981.4618552241,50682.9593153779,44173.7647260673,61463.5630358982,31004.2770882989,23112.0412396086
8413471520,22388,0,0,43277.4678426958,60948.5896032608,40290.8336513237,57324.0152351587,69980.6466195370,50677.5811933822,44174.8841541750,61460.8496395067,31016.1040896108,23100.2142382967
8413471520,22388,0,0,43277.7233643291,60945.7788652947,40282.3162635477,57316.4104246444,69976.8016273409,50677.7028703504,44168.8003057636,61454.0235615890,31004.1189082402,23096.4909230689
8413471520,22388,0,0,43287.4453540906,60955.8537182641,40285.0053245455,57323.9665643714,69978.7971296199,50680.0755712309,44172.5114532946,61459.9127268513,31004.6177838099,23097.3426618465
8413471520,22388,0,0,43288.0780743254,60959.6622073697,40292.8291536027,57330.6709653209,69972.8349581767,50676.2549144285,44182.6593124449,61466.4954508325,31007.7083788029,23097.7320281448
8413471520,22388,0,0,43291.9230665214,60954.8681348214,40287.3293546387,57324.0517382492,69972.7132812084,50674.1012320908,44174.0202477006,61461.6892105874,30998.0107244351,23107.9650611729
8413471520,22388,0,0,43298.8221506200,60952.0938999458,40284.9809891519,57319.9998952072,69986.7791387358,50678.5789445217,44164.0792393963,61464.2930977076,31000.4442637996,23113.4283570464
8413499551,22389,0,0,43286.8613046431,60944.4160832505,40286.5141189516,57318.7587901312,69976.6799503727,50669.8547058996,44164.4929410883,61458.3430939611,31011.4681971212,23097.0506371227
8413499551,22389,0,0,43267.4051574232,60936.2150555919,40283.5452009268,57316.1549030111,69966.0697187431,50668.4919238554,44166.6952942132,61448.2195702044,31014.1450904223,23081.1352896783
8413499551,22389,0,0,43270.3497400544,60939.7680230642,40278.0332342660,57319.2089949137,69972.0075547927,50682.1684150844,44167.4740268099,61445.2019813924,31006.1022428223,23088.9104479482
8413499551,22389,0,0,43276.7377808864,60946.7279456469,40284.2874304330,57327.2153394232,69978.9918127691,50683.3730170699,44170.7106341648,61452.5634379702,31012.0522465687,23098.4742576510
8413499551,22389,0,0,43274.4745892773,60941.2646497734,40279.8097180021,57321.7033727624,69965.4369985083,50666.3990800019,44166.5979526386,61452.8919657845,31009.0711608471,23098.6081023161
8413499551,22389,0,0,43284.3912621880,60938.6364272596,40265.4031649638,57312.9182956562,69969.1968168266,50666.4964215765,44153.0188029842,61451.7847053736,30985.8551953089,23109.4495201853
8413499551,22389,0,0,43295.9384064730,60948.8086218036,40270.1850698152,57319.1359887327,69980.4762717815,50677.4230133235,44156.6934474247,61465.2908488470,30990.7709448254,23119.9624102403
8413499551,22389,0,0,43287.7982172985,60956.3404261370,40289.8237324874,57328.5416183769,69985.4650274789,50689.0796668799,44171.3798574900,61469.0993379526,31016.1405927012,23115.0466607239
8413510685,22390,0,0,43283.4908526231,60954.1867437994,40293.4862092311,57325.6700419266,69979.3811790674,50691.1238399461,44174.5556263608,61468.5882946861,31015.8607356743,23121.9092417320
8413510685,22390,0,0,43290.3290982376,60952.5562724251,40295.3600345419,57319.7565412707,69991.2933542571,50697.8647439860,44166.7439650005,61471.1800141093,31015.7147233124,23125.6082215662
8413510685,22390,0,0,43282.5661076646,60948.4557585958,40299.1563559506,57319.3428395787,69985.7205491122,50687.3518539310,44167.5592006876,61468.3814438401,31028.4786372797,23110.6541221708
8413510685,22390,0,0,43274.0487198885,60940.8509480814,40284.9931568487,57314.6339409082,69973.6988646511,50672.0448913277,44162.8503020172,61454.8753003666,31021.1293483986,23100.2020705999
8413510685,22390,0,0,43279.3416680065,60944.7446110648,40273.7258695907,57313.3441650450,69977.3248383043,50675.4761818318,44159.1026513957,61453.2204935987,31008.2680928568,23102.1975728788
8413510685,22390,0,0,43278.0883952338,60951.7653721316,40280.9413138067,57316.3130830698,69974.2950817954,50678.2260813138,44162.6921219585,61457.8442183914,31016.3596112441,23095.3471595675
8413510685,22390,0,0,43279.8405435763,60950.8892979603,40283.3018469903,57318.0043929282,69974.5506034287,50681.8033841797,44165.0648228389,61462.4557754873,31014.7899783539,23100.3845860522
8413510685,22390,0,0,43293.9307364972,60960.4531076632,40288.2662672941,57325.3536818092,70002.5119707278,50694.4091180883,44165.1134936262,61472.3602807012,31012.9161530432,23112.5644505720
8413538203,22391,0,0,43295.8532325952,60964.9673231845,40295.7372331434,57334.0779204313,69998.3384507176,50680.1120743213,44168.8124734604,61470.5959646618,31014.2545996937,23107.1741608794
8413538203,22391,0,0,43291.2538431962,60962.9474855119,40299.9715916378,57343.0211775962,69990.3321062081,50681.2680055195,44181.2721950071,61473.5283795962,31018.9391629705,23104.6067768498
8413538203,22391,0,0,43286.4597706479,60959.8447228220,40298.2681140825,57339.8940795127,69992.3641115775,50685.2955131679,44180.3109469581,61466.6414631944,31014.2545996937,23101.6865296123
8413538203,22391,0,0,43285.5228579926,60957.6667050907,40295.9805870798,57330.3424375067,69993.6903905312,50688.2522634959,44170.3091001696,61461.7378813747,31013.2203454637,23106.4075959796
8413538203,22391,0,0,43281.3006671950,60956.1700783815,40304.2424532226,57327.8480596579,69984.4551086426,50689.7853932956,44171.9030684534,61465.5828735708,31026.6413150594,23107.8068811142
8413538203,22391,0,0,43293.2615131720,60958.7252947143,40303.5002237164,57328.7484692228,69989.0666657385,50692.9124913791,44173.9837446101,61470.8758216888,31019.4137031466,23118.5387897120
8413538203,22391,0,0,43307.7289046944,60968.1309243584,40301.8819200390,57335.6232179278,69988.3852747164,50687.8507295007,44173.8255645515,61472.9199947550,31014.4857859333,23120.7411428370
8413538203,22391,0,0,43305.8550793837,60969.5058740994,40307.8075883917,57343.1306868676,69989.9427399097,50690.5641258923,44181.0166733738,61476.5216330146,31022.4191242619,23113.0024876576
8413561683,22392,0,0,43294.6242952161,60958.2750899319,40302.5511433642,57330.5857914431,69978.1035709010,50681.3166763068,44174.2879370307,61465.5220350867,31018.9148275769,23107.1011546985
8413561683,22392,0,0,43293.6752148639,60951.8992167966,40294.1310971627,57323.8448874032,69986.5966232834,50686.5122828502,44164.6876242374,61462.3949370032,31014.6439659920,23111.7857179753
8413561683,22392,0,0,43292.8599791768,60958.1047421763,40299.5822253394,57333.1288400791,69995.0653402722,50694.5551304502,44175.9670791923,61467.0429971895,31030.8270027665,23113.6230401956
8413561683,22392,0,0,43289.4530240664,60966.1110866858,40305.0333535161,57346.3064557384,69992.8873225409,50694.9323290517,44193.9144320061,61469.8659028525,31045.4769097414,23115.9592379856
8413561683,22392,0,0,43297.1065053680,60967.4982041237,40294.9828359404,57344.2379472785,69994.3352784628,50685.0278238378,44194.8148415710,61469.1966795272,31029.4033822382,23118.5509574089
8413561683,22392,0,0,43303.8352417111,60961.6090388614,40284.4212750980,57335.9517457420,69991.4515343158,50675.4031756509,44185.3727088364,61467.2133449451,31013.3420224320,23112.1142457895
8413561683,22392,0,0,43298.2624365662,60949.2831619797,40280.4789413274,57327.2153394232,69974.3315848859,50668.4554207650,44178.3519477696,61469.6468843096,31004.2162498148,23114.5721205478
8413561683,22392,0,0,43295.5368724779,60948.3097462339,40278.3617620802,57323.2608379557,69987.7890575721,50674.0403936067,44172.1464223899,61473.2363548724,30996.1977376084,23123.8560732237
8413605455,22393,0,0,43296.0479157444,60957.1921649146,40287.6822178466,57330.1842574480,69994.8706571230,50691.7930632714,44176.5876317303,61477.7627380905,31002.5371076532,23127.7619039038
8413605455,22393,0,0,43289.2948440077,60962.0349082501,40304.1086085576,57338.1175957765,69994.1405953136,50696.4167880641,44189.3393780007,61480.0989358806,31025.1446883502,23115.4238593254
8413605455,22393,0,0,43277.1393148816,60952.1912415204,40300.6043118726,57328.9918231593,69984.0900777379,50686.1837550360,44188.7188254627,61469.1115056494,31026.6656504531,23106.1764097399
8413605455,22393,0,0,43275.8982098056,60938.3322348391,40279.5663640657,57312.8696248689,69973.2973306559,50673.6631950052,44167.3888529321,61458.0754046310,31010.5677875563,23111.6518733103
8413605455,22393,0,0,43285.2795040561,60939.8166938515,40279.4081840070,57317.9922252314,69970.4744249930,50674.8434615970,44168.0824116510,61466.1669230183,31007.0269877809,23122.4567880890
8413605455,22393,0,0,43292.2029235484,60949.0154726496,40288.3271057782,57331.7538903381,69983.7615499237,50678.7249568835,44180.8949964056,61471.3503618649,31011.5777063926,23125.4743769011
8413605455,22393,0,0,43294.7824752748,60956.0970722006,40291.2838561062,57338.2636081384,69994.1040922232,50682.9349799843,44186.7233231838,61471.5815481045,31009.8620611406,23128.2121086863
8413605455,22393,0,0,43291.1930047121,60956.8758047972,40292.9021597836,57338.7016452240,69994.9923340913,50692.6204666553,44185.8837521030,61470.6568031459,31017.5642132295,23119.6825532134
8413634389,22394,0,0,43284.0018958897,60950.0253914859,40294.4109541897,57333.9562434631,69985.5015305694,50686.2080904296,44181.3938719753,61467.5175373656,31021.3605346383,23107.3688440286
8413634389,22394,0,0,43282.6026107551,60943.1141396905,40285.5042001153,57321.2166648894,69984.1387485252,50676.9728085410,44167.7538838368,61459.6207021275,31006.6132860889,23107.9528934761
8413634389,22394,0,0,43290.1100796948,60946.1803992899,40284.8349767900,57321.3870126450,69987.1806727309,50675.2571632890,44163.1909975282,61457.0776534915,30997.9620536478,23111.9925688213
8413634389,22394,0,0,43288.4431052301,60950.1714038478,40296.8809966447,57328.3956060150,69978.6876203485,50670.4630907408,44173.8133968546,61458.1605785088,31003.2063309785,23113.8663941320
8413634389,22394,0,0,43283.0649832343,60945.6450206297,40291.3568622871,57318.0165606250,69962.3099004248,50662.9921248915,44169.9805723554,61451.5778545276,30998.7407862444,23112.5887859656
8413634389,22394,0,0,43297.2525177299,60942.5057548493,40277.7655449359,57311.8718737294,69972.7376166021,50679.1264908787,44160.1612410193,61456.8586349487,30988.9092872115,23122.8461543874
8413634389,22394,0,0,43305.4292099949,60951.8018752221,40290.0914218175,57327.2031717263,69986.9981572786,50694.8836582644,44169.1896720619,61469.6468843096,31011.8818988132,23120.2544349641
8413634389,22394,0,0,43298.6639705613,60957.0218171591,40301.5533922247,57337.6187202068,69984.7714687600,50684.6749606299,44181.3086980976,61465.5220350867,31023.6115585505,23105.3976771433
8413662133,22395,0,0,43302.9835029335,60955.2209980293,40290.8823221110,57336.0247519230,69973.9787216780,50677.7272057440,44179.9824191439,61461.7135459811,31008.0734097076,23114.8763129683
8413662133,22395,0,0,43297.9704118424,60954.1867437994,40291.5272100426,57334.4064482455,69983.5668667745,50682.7402968351,44176.9161595445,61463.1615019030,31012.4294451702,23110.3986005375
8413662133,22395,0,0,43275.4723404168,60946.1195608057,40298.4506295349,57330.1599220543,69974.1125663431,50683.0079861652,44175.9427437986,61454.5954433397,31027.8337493481,23101.3093310108
8413662133,22395,0,0,43261.8080168847,60933.0514544179,40283.9832380124,57314.6947793923,69966.7997805525,50668.0417190730,44159.7232039337,61439.5926731570,31012.5876252289,23100.0317228443
8413662133,22395,0,0,43270.1185538147,60935.7526831126,40277.7168741486,57318.1747406837,69968.3572457458,50664.6956024467,44159.5285207845,61442.7927774214,31002.4641014723,23103.9740566150
8413662133,22395,0,0,43273.4768381379,60942.1163885510,40284.6646290345,57329.5515372132,69963.8795333150,50660.3273992872,44171.6840499106,61445.4088322383,31005.8832242795,23100.6036045950
8413662133,22395,0,0,43277.8937120846,60938.4295764136,40273.8110434684,57323.4433534080,69947.5018133913,50651.9925269635,44166.3545987022,61441.7950262819,30986.2932323946,23113.8663941320
8413662133,22395,0,0,43294.1254196464,60937.4926637583,40264.9164570909,57313.7213636465,69963.5875085912,50665.4013288624,44149.4293324215,61446.5525957397,30976.8510996600,23128.3094502609
8413739125,22396,0,0,43295.5125370842,60938.7824396215,40279.0188177087,57316.7389524586,69967.3351592127,50672.4099222324,44150.5852636196,61452.5025994861,30997.8647120732,23123.2233529889
8413739125,22396,0,0,43290.9374830788,60943.2723197492,40291.4663715585,57325.9620666504,69974.1247340399,50677.5811933822,44163.3370098901,61454.7292880047,31016.1162573076,23116.8231444600
8413739125,22396,0,0,43292.3611036071,60947.1781504293,40292.2329364584,57329.8070588464,69978.3955956248,50681.8398872702,44169.8467276903,61452.3687548211,31015.6660525251,23119.0498329786
8413739125,22396,0,0,43291.7770541596,60950.3052485128,40297.5015491827,57336.3167766467,69974.8426281525,50686.3175997010,44178.6683078870,61457.0411504011,31022.2001057191,23117.5167031789
8413739125,22396,0,0,43287.6887080271,60947.2754920039,40296.7349842829,57334.8079822407,69974.8061250620,50686.3054320042,44179.1550157599,61458.7689633499,31026.3614580325,23111.0434884691
8413739125,22396,0,0,43291.0469923502,60946.2534054708,40284.6281259440,57327.1788363327,69970.5595988708,50680.0634035341,44168.7394672795,61457.2114981566,31014.5952952047,23113.2215062004
8413739125,22396,0,0,43302.8983290557,60951.6315274665,40281.7443817970,57330.7926422891,69976.5704411013,50674.0890643940,44166.0017354943,61463.7820544410,31004.1310759370,23117.4680323916
